File: sem2/lab/dragforce/data/water/DSC_1745_L.txt
1.4014	-200.486	-57.2464
1.41808	-201.41	-61.0379
1.43477	-202.522	-71.4571
1.45145	-203.794	-71.4445
1.46813	-204.906	-82.5897
1.48482	-206.55	-90.5369
1.5015	-207.927	-107.576
1.51818	-210.14	-137.876
1.53487	-212.527	-141.677
1.55155	-214.867	-153.556
1.56823	-217.651	-170.09
1.58492	-220.542	-177.702
1.6016	-223.58	-179.373
1.61828	-226.527	-201.971
1.63497	-230.319	-207.86
1.65165	-233.463	-191.384
1.66833	-236.705	-210.594
1.68502	-240.49	-211.167
1.7017	-243.751	-212.88
1.71838	-247.593	-208.588
1.73507	-250.711	-209.446
1.75175	-254.581	-207.469
1.76843	-257.634	-187.032
1.78512	-260.822	-182.992
1.8018	-263.74	-171.367
1.81848	-266.54	-171.932
1.83517	-269.476	-178.569
1.85185	-272.498	-186.615
1.86853	-275.703	-183.922
1.88522	-278.635	-174.075
1.9019	-281.511	-175.022
1.91858	-284.475	-182.939
1.93527	-287.615	-192.206
1.95195	-290.888	-193.858
1.96863	-294.084	-199.332
1.98532	-297.539	-213.294
2.002	-301.201	-209.443
2.01868	-304.528	-212.622
2.03537	-308.295	-217.439
2.05205	-311.783	-218.666
2.06873	-315.591	-230.224
2.08542	-319.465	-221.237
2.1021	-322.973	-215.614
2.11878	-326.659	-234.425
2.13547	-330.795	-233.699
2.15215	-334.457	-230.504
2.16883	-338.486	-242.653
2.18552	-342.553	-240.049
2.2022	-346.496	-236.426
2.21888	-350.442	-236.155
2.23557	-354.376	-236.648
2.25225	-358.338	-239.167
2.26893	-362.356	-225.438
2.28562	-365.86	-218.106
2.3023	-369.633	-231.949
2.31898	-373.6	-235.118
2.33567	-377.479	-237.296
2.35235	-381.517	-244.376
2.36903	-385.633	-243.836
2.38572	-389.653	-239.368
2.4024	-393.62	-240.269
2.41908	-397.67	-242.651
2.43577	-401.716	-242.054
2.45245	-405.747	-236.961
2.46913	-409.623	-236.684
2.48582	-413.644	-239.137
2.5025	-417.602	-237.855
2.51918	-421.581	-234.477
2.53587	-425.426	-221.296
2.55255	-428.965	-217.324
2.56923	-432.677	-224.408
2.58592	-436.452	-211.698
2.6026	-439.741	-205.501
2.61928	-443.309	-209.276
2.63597	-446.723	-200.415
2.65265	-449.996	-206.454
2.66933	-453.612	-202.798
2.68602	-456.763	-180.931
2.7027	-459.649	-199.339
2.71938	-463.414	-225.336
2.73607	-467.168	-220.731
2.75275	-470.779	-217.572
2.76943	-474.428	-212.84
2.78612	-477.881	-214.153
2.8028	-481.573	-210.927
2.81948	-484.919	-215.573
2.83617	-488.766	-226.085
2.85285	-492.463	-229.049
2.86953	-496.409	-233.619
2.88622	-500.258	-230.035
2.9029	-504.084	-239.606
2.91958	-508.253	-246.624
2.93627	-512.313	-247.25
2.95295	-516.503	-238.295
2.96963	-520.264	-233.654
2.98632	-524.299	-241.562
3.003	-528.324	-235.025
3.01968	-532.141	-239.749
3.03637	-536.324	-248.32
3.05305	-540.427	-243.265
3.06973	-544.441	-241.938
3.08642	-548.499	-239.78
3.1031	-552.442	-235.907
3.11978	-556.371	-233.724
3.13647	-560.24	-234.721
3.15315	-564.202	-232.162
3.16983	-567.987	-212.264
3.18652	-571.285	-190.813
3.2032	-574.353	-225.638
3.21988	-578.814	-244.371
3.23657	-582.507	-225.564