File: sem2/lab/dragforce/data/water/DSC_1736_S.txt
0.567233	-200.12	-5.98822
0.583917	-200.2	-9.09722
0.6006	-200.424	-19.98
0.617283	-200.866	-18.9196
0.633967	-201.055	-12.7077
0.65065	-201.29	-24.3383
0.667333	-201.867	-28.9161
0.684017	-202.255	-33.9904
0.7007	-203.001	-51.8373
0.717383	-203.985	-59.3317
0.734067	-204.981	-59.278
0.75075	-205.963	-63.2736
0.767433	-207.092	-81.8188
0.784117	-208.693	-92.0144
0.8008	-210.163	-97.1669
0.817483	-211.935	-105.315
0.834167	-213.677	-112.962
0.85085	-215.704	-124.732
0.867533	-217.838	-127.946
0.884217	-219.973	-127.596
0.9009	-222.096	-128.707
0.917583	-224.268	-128.194
0.934267	-226.373	-115.23
0.95095	-228.113	-108.409
0.967633	-229.991	-114.571
0.984317	-231.936	-117.905
1.001	-233.925	-120.793
1.01768	-235.966	-117.208
1.03437	-237.835	-111.745
1.05105	-239.695	-110.438
1.06773	-241.52	-104.858
1.08442	-243.193	-103.302
1.1011	-244.967	-103.809
1.11778	-246.657	-98.2801
1.13447	-248.247	-102.687
1.15115	-250.083	-116.395
1.16783	-252.13	-118.527
1.18452	-254.038	-115.03
1.2012	-255.968	-123.921
1.21788	-258.173	-127.009
1.23457	-260.206	-138.017
1.25125	-262.778	-148.646
1.26793	-265.166	-151.9
1.28462	-267.847	-143.508
1.3013	-269.954	-127.478
1.31798	-272.1	-145.895
1.33467	-274.823	-152.15
1.35135	-277.177	-141.839
1.36803	-279.555	-149.599
1.38472	-282.169	-143.931
1.4014	-284.358	-141.261
1.41808	-286.882	-135.197
1.43477	-288.869	-130.822
1.45145	-291.247	-183.358
1.46813	-294.987	-176.304
1.48482	-297.13	-126.674
1.5015	-299.214	-141.162
1.51818	-301.84	-144.193
1.53487	-304.025	-147.204
1.55155	-306.752	-161.052
1.56823	-309.399	-157.029
1.58492	-311.991	-157.72
1.6016	-314.661	-156.519
1.61828	-317.214	-164.807
1.63497	-320.16	-170.507
1.65165	-322.903	-157.652
1.66833	-325.42	-155.769
1.68502	-328.1	-162.64
1.7017	-330.847	-163.496
1.71838	-333.556	-155.641
1.73507	-336.04	-157.495
1.75175	-338.811	-168.778
1.76843	-341.672	-159.841
1.78512	-344.144	-151.736
1.8018	-346.735	-151.071
1.81848	-349.185	-155.973
1.83517	-351.939	-152.608
1.85185	-354.277	-158.276
1.86853	-357.22	-162.88
1.88522	-359.712	-143.969
1.9019	-362.024	-138.548
1.91858	-364.334	-147.725
1.93527	-366.953	-150.287
1.95195	-369.349	-151.428
1.96863	-372.006	-151.757
1.98532	-374.413	-153.097
2.002	-377.114	-168.652
2.01868	-380.04	-172.956
2.03537	-382.885	-169.033
2.05205	-385.68	-162.862
2.06873	-388.319	-165.384
2.08542	-391.198	-178.543
2.1021	-394.277	-181.751
2.11878	-397.263	-175.811
2.13547	-400.143	-179.271
2.15215	-403.244	-179.132
2.16883	-406.12	-181.717
2.18552	-409.308	-182.488
2.2022	-412.209	-178.402
2.21888	-415.26	-176.98
2.23557	-418.114	-174.207
2.25225	-421.073	-177.853
2.26893	-424.049	-191.544
2.28562	-427.464	-203.645
2.3023	-430.844	-183.385
2.31898	-433.583	-179.572
2.33567	-436.835	-170.906
2.35235	-439.286	-152.159
2.36903	-441.912	-158.614
2.38572	-444.578	-154.15
2.4024	-447.056	-136.109
2.41908	-449.12	-138.584
2.43577	-451.68	-161.297
2.45245	-454.502	-159.819
2.46913	-457.013	-152.388
2.48582	-459.586	-127.104
2.5025	-461.254	-97.2684
2.51918	-462.832	-157.669
2.53587	-466.514	-201.627
2.55255	-469.559	-181.437
2.56923	-472.568	-180.783
2.58592	-475.592	-181.336
2.6026	-478.619	655.208
2.61928	-453.73	656.944
2.63597	-456.699	-178.074
2.65265	-459.671	-177.621
2.66933	-462.626	-179.182
2.68602	-465.65	-180.685
2.7027	-468.654	-179.293
2.71938	-471.632	-180.792
2.73607	-474.687	-181.033
2.75275	-477.673	-179.66
2.76943	-480.681	-179.134
2.78612	-483.65	-181.758
2.8028	-486.746	-179.898
2.81948	-489.653	-176.203
2.83617	-492.625	-176.898