File: sem2/lab/dragforce/data/water/DSC_1751_L.txt
2.5025	-214.434	-11.7387
2.51918	-214.892	-16.9448
2.53587	-214.999	-33.1435
2.55255	-215.998	-55.9682
2.56923	-216.866	-65.1932
2.58592	-218.173	-90.5943
2.6026	-219.889	-98.8096
2.61928	-221.47	-101.274
2.63597	-223.268	-114.148
2.65265	-225.279	-131.158
2.66933	-227.645	-135.758
2.68602	-229.808	-140.824
2.7027	-232.344	-158.218
2.71938	-235.088	-180.094
2.73607	-238.353	-197.521
2.75275	-241.678	-194.351
2.76943	-244.838	-203.275
2.78612	-248.461	-209.33
2.8028	-251.822	-213.632
2.81948	-255.589	-229.074
2.83617	-259.466	-230.061
2.85285	-263.265	-222.311
2.86953	-266.883	-220.777
2.88622	-270.632	-231.071
2.9029	-274.594	-236.937
2.91958	-278.538	-238.62
2.93627	-282.555	-246.09
2.95295	-286.749	-247.041
2.96963	-290.798	-231.163
2.98632	-294.462	-219.027
3.003	-298.107	-215.222
3.01968	-301.643	-204.894
3.03637	-304.943	-197.114
3.05305	-308.22	-200.105
3.06973	-311.62	-189.751
3.08642	-314.552	-173.391
3.1031	-317.406	-172.16
3.11978	-320.296	-169.951
3.13647	-323.076	-169.392
3.15315	-325.948	-169.183
3.16983	-328.721	-168.033
3.18652	-331.555	-177.223
3.2032	-334.635	-177.098
3.21988	-337.464	-173.688
3.23657	-340.43	-179.126
3.25325	-343.441	-183.758
3.26993	-346.561	-188.042
3.28662	-349.715	-196.516
3.3033	-353.119	-201.379
3.31998	-356.434	-205.361
3.33667	-359.971	-208.365
3.35335	-363.387	-213.096
3.37003	-367.081	-219.599
3.38672	-370.714	-218.983
3.4034	-374.388	-221.739
3.42008	-378.113	-232.444
3.43677	-382.144	-234.536
3.45345	-385.939	-223.328
3.47013	-389.595	-225.609
3.48682	-393.466	-234.723
3.5035	-397.427	-219.492
3.52018	-400.79	-240.403
3.53687	-405.449	-260.095
3.55355	-409.469	-228.428
3.57023	-413.071	-231.35
3.58692	-417.188	-250.952
3.6036	-421.444	-257.233
3.62028	-425.771	-235.854
3.63697	-429.314	-211.32
3.65365	-432.822	-186.313
3.67033	-435.53	-147.975
3.68702	-437.76	-302.584
3.7037	-445.627	-280.331
3.72038	-447.113	-214.363
3.73707	-452.779	-232.061
3.75375	-454.856	-105.121
3.77043	-456.287	-165.779
3.78712	-460.388	-250.959
3.8038	-464.66	-246.812
3.82048	-468.623	-225.496
3.83717	-472.184	-228.792
3.85385	-476.257	-234.819
3.87053	-480.02	-239.141
3.88722	-484.236	-235.858
3.9039	-487.889	-225.752
3.92058	-491.769	-233.222
3.93727	-495.671	-242.38
3.95395	-499.856	-247.213
3.97063	-503.92	-248.171
3.98732	-508.137	-262.485
4.004	-512.678	-271.125
4.02068	-517.184	-262.038
4.03737	-521.421	-227.083
4.05405	-524.761	-147.697
4.07073	-526.35	-300.144
4.08742	-534.775	-341.513
4.1041	-537.745	-192.157
4.12078	-541.187	-314.133
4.13747	-548.226	-327.984
4.15415	-552.131	-210.273
4.17083	-555.242	-173.408
4.18752	-557.917	-307.551
4.2042	-565.504	-308.338
4.22088	-568.205	-221.471
4.23757	-572.894	-187.632
4.25425	-574.466	1087.19
4.27093	-536.618	-436.031
4.28762	-589.015	-1687.04
4.3043	-592.909	-239.478
4.32098	-597.005	-110.176
4.33767	-596.585	91.7042
4.35435	-593.945	156.5
4.37103	-591.363	130.066
4.38772	-589.605	93.9055