File: sem2/lab/dragforce/data/water/DSC_1730_S.txt
1.51818	-195.44	-6.86036
1.53487	-195.606	-14.9504
1.55155	-195.939	-25.6911
1.56823	-196.463	-38.8486
1.58492	-197.235	-52.9855
1.6016	-198.231	-63.4357
1.61828	-199.351	-67.7254
1.63497	-200.491	-77.7552
1.65165	-201.946	-88.0505
1.66833	-203.429	-102.54
1.68502	-205.367	-118.871
1.7017	-207.395	-135.736
1.71838	-209.896	-150.719
1.73507	-212.424	-142.541
1.75175	-214.653	-142.592
1.76843	-217.182	-146.65
1.78512	-219.546	-151.392
1.8018	-222.234	-160.464
1.81848	-224.9	-159.04
1.83517	-227.54	-157.591
1.85185	-230.158	-152.373
1.86853	-232.625	-155.024
1.88522	-235.331	-160.248
1.9019	-237.971	-152.193
1.91858	-240.409	-143.598
1.93527	-242.763	-131.943
1.95195	-244.812	-122.898
1.96863	-246.864	-126.779
1.98532	-249.042	-124.833
2.002	-251.029	-122.369
2.01868	-253.125	-128.34
2.03537	-255.311	-127.17
2.05205	-257.368	-125.688
2.06873	-259.505	-123.66
2.08542	-261.494	-115.979
2.1021	-263.375	-123.881
2.11878	-265.628	-143.912
2.13547	-268.177	-158.266
2.15215	-270.908	-159.831
2.16883	-273.51	-155.763
2.18552	-276.106	-147.858
2.2022	-278.443	-139.097
2.21888	-280.747	-146.385
2.23557	-283.327	-139.678
2.25225	-285.407	-128.246
2.26893	-287.607	-164.025
2.28562	-290.88	-141.225
2.35235	-301.454	-136.297
2.36903	-303.927	-154.504
2.38572	-306.609	-159.964
2.4024	-309.265	-163.812
2.41908	-312.075	-166.193
2.43577	-314.81	-161.252
2.45245	-317.456	-163.669
2.46913	-320.271	-171.573
2.48582	-323.18	-173.198
2.5025	-326.05	-164.34
2.51918	-328.664	-161.506
2.53587	-331.439	-167.225
2.55255	-334.244	-165.329
2.56923	-336.955	-158.996
2.58592	-339.549	-159.797
2.6026	-342.287	-162.93
2.61928	-344.985	-157.819
2.63597	-347.553	-156.829
2.65265	-350.218	-156.284
2.66933	-352.768	-156.31
2.68602	-355.434	-158.138
2.7027	-358.045	-150.298
2.71938	-360.448	-155.293
2.73607	-363.226	-156.804
2.75275	-365.68	-151.425
2.76943	-368.279	-160.467
2.78612	-371.035	-154.455
2.8028	-373.432	-148.496
2.81948	-375.99	-153.777
2.83617	-378.563	-154.505
2.85285	-381.145	-155.873
2.86953	-383.764	-161.982
2.88622	-386.55	-161.245
2.9029	-389.144	-156.467
2.91958	-391.77	-157.436
2.93627	-394.398	-164.291
2.95295	-397.252	-173.51
2.96963	-400.187	-170.407
2.98632	-402.938	-158.619
3.003	-405.48	-166.836
3.01968	-408.505	-177.83
3.03637	-411.413	-176.262
3.05305	-414.386	-176.092
3.06973	-417.289	-173.603
3.08642	-420.179	-172.081
3.1031	-423.031	-162.514
3.11978	-425.601	-176.664
3.13647	-428.925	-184.171
3.15315	-431.747	-184.539
3.16983	-435.083	-178.058
3.18652	-437.688	-168.445
3.2032	-440.703	-171.207
3.21988	-443.4	-174.647
3.23657	-446.531	-184.762
3.25325	-449.565	-169.321