File: sem2/lab/dragforce/data/water/DSC_1756_M.txt
2.03537	498.686	-6.20494
2.05205	498.521	-22.7033
2.06873	497.928	-38.092
2.08542	497.25	-51.4896
2.1021	496.21	-84.0626
2.11878	494.445	-137.485
2.13547	491.623	-173.387
2.15215	488.66	-203.07
2.16883	484.847	-237.067
2.18552	480.75	-264.498
2.2022	476.021	-319.423
2.21888	470.091	-363.373
2.23557	463.897	-371.23
2.25225	457.705	-374.313
2.26893	451.407	-396.078
2.28562	444.489	-442.231
2.3023	436.652	-482.314
2.31898	428.396	-489.53
2.33567	420.318	-480.977
2.35235	412.347	-501.384
2.36903	403.588	-522.724
2.38572	394.906	-498.615
2.4024	386.951	-466.505
2.41908	379.34	-459.278
2.43577	371.626	-460.473
2.45245	363.975	-445.926
2.46913	356.747	-422.775
2.48582	349.869	-401.683
2.5025	343.344	-387.334
2.51918	336.945	-379.561
2.53587	330.68	-369.061
2.55255	324.63	-371.663
2.56923	318.279	-405.944
2.58592	311.085	-418.515
2.6026	304.314	-408.873
2.61928	297.443	-419.404
2.63597	290.32	-436.761
2.65265	282.869	-442.665
2.66933	275.55	-443.631
2.68602	268.067	-507.194
2.7027	258.626	-525.755
2.71938	250.524	-478.39
2.73607	242.664	-476.919
2.75275	234.611	-489.685
2.76943	226.325	-496.379
2.78612	218.049	-495.27
2.8028	209.799	-491.469
2.81948	201.65	-487.306
2.83617	193.54	-488.245
2.85285	185.359	-490.378
2.86953	177.177	-492.066
2.88622	168.94	-499.267
2.9029	160.519	-501.899
2.91958	152.193	-503.231
2.93627	143.727	-499.565
2.95295	135.525	-491.262
2.96963	127.336	-491.768
2.98632	119.116	-498.544
3.003	110.701	-496.401
3.01968	102.553	-486.216
3.03637	94.4775	-480.064
3.05305	86.5346	-477.678
3.06973	78.539	-476.545
3.08642	70.6339	-475.714
3.1031	62.666	-474.76
3.11978	54.7927	-473.361
3.13647	46.8715	-464.209
3.15315	39.3036	-458.274
3.16983	31.5804	-467.778
3.18652	23.6954	-475.047
3.2032	15.7297	-475.358
3.21988	7.83429	-467.41
3.23657	0.133761	-468.389
3.25325	-7.7943	-469.683
3.26993	-15.538	-471.208
3.28662	-23.5169	-479.458
3.3033	-31.5359	-484.691
3.31998	-39.6895	-487.124
3.33667	-47.7896	-482.014
3.35335	-55.7727	-484.384
3.37003	-63.9519	-495.5
3.38672	-72.3059	-498.83
3.4034	-80.5962	-513.834
3.42008	-89.4508	-533.292
3.43677	-98.3904	-504.027
3.45345	-106.268	-468.396
3.47013	-114.019	-476.482
3.48682	-122.167	-504.49
3.5035	-130.852	-541.796
3.52018	-140.245	-554.507
3.53687	-149.354	-539.138
3.55355	-158.234	-529.508
3.57023	-167.022	-531.832
3.58692	-175.98	-540.466
3.6036	-185.056	-549.158
3.62028	-194.303	-541.824
3.63697	-203.135	-539.441
3.65365	-212.303	-550.782
3.67033	-221.513	-538.146
3.68702	-230.259	-532.761
3.7037	-239.289	-542.557
3.72038	-248.362	-536.653
3.73707	-257.195	-529.873
3.75375	-266.042	-530.447
3.77043	-274.895	-538.82
3.78712	-284.021	-529.642
3.8038	-292.567	-542.182
3.82048	-302.112	-543.187
3.83717	-310.691	-561.135
3.85385	-320.835	-559.554
3.87053	-329.362	-545.569
3.88722	-339.039	-535.765
3.9039	-347.238	-522.003
3.92058	-356.456	-548.582
3.93727	-365.543	-546.252
3.95395	-374.683	-556.397
3.97063	-384.108	-564.849
3.98732	-393.53	-549.123