File: sem2/lab/dragforce/data/water/DSC_1734_M.txt
2.2022	-203.02	-4.13252
2.21888	-203.138	-22.9716
2.23557	-203.786	-26.3639
2.25225	-204.018	-29.27
2.26893	-204.763	-54.0894
2.28562	-205.822	-61.3303
2.3023	-206.809	-57.8582
2.31898	-207.753	-55.1022
2.33567	-208.648	-51.458
2.35235	-209.47	-61.8203
2.36903	-210.71	-81.752
2.38572	-212.198	-96.3232
2.4024	-213.924	-107.284
2.41908	-215.777	-113.99
2.43577	-217.728	-127.3
2.45245	-220.025	-143.633
2.46913	-222.52	-152.664
2.48582	-225.119	-161.893
2.5025	-227.922	-168.064
2.51918	-230.727	-164.314
2.53587	-233.405	-164.797
2.55255	-236.225	-177.006
2.56923	-239.311	-182.788
2.58592	-242.324	-187.841
2.6026	-245.579	-189.01
2.61928	-248.631	-183.74
2.63597	-251.709	-183.2
2.65265	-254.744	-183.884
2.66933	-257.845	-185.686
2.68602	-260.939	-180.858
2.7027	-263.88	-174.69
2.71938	-266.768	-178.108
2.73607	-269.822	-183.707
2.75275	-272.898	-193.545
2.76943	-276.28	-196.049
2.78612	-279.439	-174.114
2.8028	-282.09	-171.75
2.81948	-285.17	-179.337
2.83617	-288.074	-192.779
2.85285	-291.603	-210.821
2.86953	-295.108	-222.334
2.88622	-299.021	-207.111
2.9029	-302.019	-178.985
2.91958	-304.993	-193.034
2.93627	-308.46	-204.907
2.95295	-311.83	-202.752
2.96963	-315.225	-209.124
2.98632	-318.808	-211.703
3.003	-322.289	-215.469
3.01968	-325.998	-219.335
3.03637	-329.607	-217.057
3.05305	-333.24	-220.92
3.06973	-336.979	-227.57
3.08642	-340.833	-227.218
3.1031	-344.56	-227.744
3.11978	-348.432	-225.657
3.13647	-352.09	-225.697
3.15315	-355.963	-231.769
3.16983	-359.823	-231.816
3.18652	-363.698	-227.404
3.2032	-367.411	-221.255
3.21988	-371.081	-225.175
3.23657	-374.924	-226.003
3.25325	-378.622	-229.344
3.26993	-382.576	-235.329
3.28662	-386.474	-227.269
3.3033	-390.16	-225.731
3.31998	-394.006	-232.885
3.33667	-397.93	-235.962
3.35335	-401.879	-234.997
3.37003	-405.771	-238.463
3.38672	-409.836	-239.031
3.4034	-413.747	-235.709
3.42008	-417.7	-240.945
3.43677	-421.786	-228.787
3.45345	-425.334	-221.82
3.47013	-429.188	-230.799
3.48682	-433.035	-233.118
3.5035	-436.966	-235.226
3.52018	-440.884	-238.9
3.53687	-444.938	-241.303
3.55355	-448.935	-229.474
3.57023	-452.594	-215.124
3.58692	-456.113	-200.809
3.6036	-459.295	-204.398
3.62028	-462.934	-227.059
3.63697	-466.871	-250.579
3.65365	-471.294	-250.639
3.67033	-475.234	-231.004
3.68702	-479.002	-230.838
3.7037	-482.936	-232.991
3.72038	-486.776	-231.609
3.73707	-490.664	-228.897
3.75375	-494.414	-225.623
3.77043	-498.192	-228.988
3.78712	-502.055	-234.044
3.8038	-506.002	-240.641
3.82048	-510.084	-238.93
3.83717	-513.974	-234.903
3.85385	-517.922	-239.758
3.87053	-521.974	-231.459
3.88722	-525.645	-213.349
3.9039	-529.093	-238.772
3.92058	-533.612	-257.388
3.93727	-537.681	-243.591
3.95395	-541.74	-247.169
3.97063	-545.928	-245.437
3.98732	-549.929	-238.969
4.004	-553.902	-240.482
4.02068	-557.953	-236.891
4.03737	-561.806	-239.743
4.05405	-565.953	-249.721
4.07073	-570.138	-240.417
4.08742	-573.975	-233.104
4.1041	-577.916	-234.032
4.12078	-581.783	-245.039
4.13747	-586.092	-251.879
4.15415	-590.188	-243.904
4.17083	-594.231	-199.138
4.18752	-596.832	-26.705
4.2042	-595.122	92.1797