File: sem2/lab/dragforce/data/water/DSC_1738_L.txt
1.58492	-205	-4.85369
1.6016	-205.182	-9.70927
1.61828	-205.323	-12.9898
1.63497	-205.616	-30.7953
1.65165	-206.351	-49.9854
1.66833	-207.284	-62.3151
1.68502	-208.43	-70.3166
1.7017	-209.63	-94.5042
1.71838	-211.584	-113.574
1.73507	-213.419	-117.813
1.75175	-215.515	-138.436
1.76843	-218.039	-151.467
1.78512	-220.569	-163.005
1.8018	-223.478	-171.163
1.81848	-226.28	-173.572
1.83517	-229.269	-181.216
1.85185	-232.326	-187.125
1.86853	-235.513	-207.719
1.88522	-239.257	-218.191
1.9019	-242.793	-217.295
1.91858	-246.508	-222.435
1.93527	-250.215	-220.878
1.95195	-253.878	-222.459
1.96863	-257.638	-221.032
1.98532	-261.253	-218.08
2.002	-264.914	-210.699
2.01868	-268.283	-197.367
2.03537	-271.5	-191.955
2.05205	-274.688	-194.846
2.06873	-278.001	-192.19
2.08542	-281.101	-191.685
2.1021	-284.397	-196.114
2.11878	-287.644	-196.635
2.13547	-290.958	-197.774
2.15215	-294.243	-199.319
2.16883	-297.609	-204.117
2.18552	-301.054	-207.028
2.2022	-304.517	-214.37
2.21888	-308.207	-222.534
2.23557	-311.942	-225.279
2.25225	-315.724	-231.967
2.26893	-319.682	-236.115
2.28562	-323.602	-240.688
2.3023	-327.713	-244.576
2.31898	-331.763	-243.044
2.33567	-335.822	-241.818
2.35235	-339.831	-241.724
2.36903	-343.888	-241.2
2.38572	-347.879	-240.283
2.4024	-351.905	-240.057
2.41908	-355.889	-237.624
2.43577	-359.834	-239.444
2.45245	-363.879	-238.893
2.46913	-367.805	-237.259
2.48582	-371.795	-236.314
2.5025	-375.69	-234.171
2.51918	-379.609	-240.203
2.53587	-383.705	-248.945
2.55255	-387.915	-247.391
2.56923	-391.959	-243.742
2.58592	-396.048	-250.985
2.6026	-400.334	-253.255
2.61928	-404.498	-251.701
2.63597	-408.732	-254.231
2.65265	-412.981	-254.156
2.66933	-417.213	-250.768
2.68602	-421.349	-250.033
2.7027	-425.555	-257.647
2.71938	-429.945	-265.7
2.73607	-434.421	-262.439
2.75275	-438.702	-262.662
2.76943	-443.185	-269.717
2.78612	-447.702	-263.74
2.8028	-451.985	-245.228
2.81948	-455.884	-235.795
2.83617	-459.853	-241.017
2.85285	-463.926	-247.512
2.86953	-468.112	-257.564
2.88622	-472.52	-261.73
2.9029	-476.845	-259.47
2.91958	-481.178	-248.112
2.93627	-485.123	-245.407
2.95295	-489.366	-251.113
2.96963	-493.502	-251.841
2.98632	-497.769	-254.901
3.003	-502.007	-264.692
3.01968	-506.601	-274.332
3.03637	-511.161	-269.868
3.05305	-515.606	-264.14
3.06973	-519.974	-281.576
3.08642	-525.001	-287.174
3.1031	-529.556	-269.5
3.11978	-533.993	-276.511
3.13647	-538.783	-286.357
3.15315	-543.548	-293.587
3.16983	-548.579	-286.515