File: sem2/lab/dragforce/data/water/DSC_1741_L.txt
3.06973	-200.104	-91.1895
3.08642	-201.842	-98.6765
3.1031	-203.396	-99.5468
3.11978	-205.164	-124.358
3.13647	-207.546	-151.627
3.15315	-210.223	-168.011
3.16983	-213.152	-175.745
3.18652	-216.087	-176.429
3.2032	-219.038	-182.27
3.21988	-222.169	-195.085
3.23657	-225.548	-203.785
3.25325	-228.968	-196.635
3.26993	-232.109	-207.7
3.28662	-235.898	-228.841
3.3033	-239.744	-223.334
3.31998	-243.35	-216.839
3.33667	-246.98	-210.577
3.35335	-250.377	-209.165
3.37003	-253.959	-206.105
3.38672	-257.254	-201.906
3.4034	-260.696	-201.039
3.42008	-263.962	-186.246
3.43677	-266.91	-174.158
3.45345	-269.773	-176.612
3.47013	-272.803	-189.38
3.48682	-276.092	-187.438
3.5035	-279.057	-180.797
3.52018	-282.124	-176.502
3.53687	-284.947	-180.917
3.55355	-288.161	-186.937
3.57023	-291.184	-198.48
3.58692	-294.783	-223.615
3.6036	-298.645	-218.921
3.62028	-302.088	-197.186
3.63697	-305.225	-205.015
3.65365	-308.929	-227.245
3.67033	-312.807	-240.168
3.68702	-316.942	-240.99
3.7037	-320.848	-240.577
3.72038	-324.97	-237.889
3.73707	-328.786	-235.585
3.75375	-332.83	-243.902
3.77043	-336.924	-242.597
3.78712	-340.925	-239.543
3.8038	-344.917	-225.64
3.82048	-348.454	-218.284
3.83717	-352.2	-230.298
3.85385	-356.138	-237.664
3.87053	-360.13	-232.94
3.88722	-363.911	-227.631
3.9039	-367.725	-239.718
3.92058	-371.909	-240.845
3.93727	-375.762	-234.292
3.95395	-379.727	-246.615
3.97063	-383.99	-246.644
3.98732	-387.956	-242.568
4.004	-392.084	-242.333
4.02068	-396.042	-242.914
4.03737	-400.189	-247.806
4.05405	-404.311	-241.115
4.07073	-408.235	-246.074
4.08742	-412.521	-257.305
4.1041	-416.82	-252.945
4.12078	-420.961	-238.756
4.13747	-424.786	-238.824
4.15415	-428.93	-244.603
4.17083	-432.948	-244.587
4.18752	-437.091	-240.013
4.2042	-440.956	-234.201
4.22088	-444.906	-238.283
4.23757	-448.907	-224.565
4.25425	-452.399	-220.165
4.27093	-456.253	-222.51
4.28762	-459.823	-220.002
4.3043	-463.594	-209.46
4.32098	-466.812	-236.666
4.33767	-471.491	-260.778
4.35435	-475.513	-244.191
4.37103	-479.639	-239.1
4.38772	-483.491	-237.542
4.4044	-487.565	-241.049
4.42108	-491.534	-239.147
4.43777	-495.544	-222.523
4.45445	-498.959	-246.091
4.47113	-503.755	-288.585
4.48782	-508.588	-289.065
4.5045	-513.401	-235.304
4.52118	-516.44	-224.149
4.53787	-520.88	-267.36
4.55455	-525.36	-255.2
4.57123	-529.395	-263.837
4.58792	-534.164	-286.853
4.6046	-538.966	-273.463
4.62128	-543.288	-272.238
4.63797	-548.05	-271.708
4.65465	-552.354	-279.798
4.67133	-557.386	-292.641
4.68802	-562.119	-306.865