File: sem2/lab/dragforce/data/water/DSC_1733_S.txt
1.66833	-203.878	4.71864
1.68502	-203.843	5.34142
1.7017	-203.7	-10.9536
1.71838	-204.208	-16.5911
1.73507	-204.253	-23.9078
1.75175	-205.006	-36.8096
1.76843	-205.482	-32.0431
1.78512	-206.075	-42.4482
1.8018	-206.898	-45.7624
1.81848	-207.602	-47.804
1.83517	-208.493	-50.0662
1.85185	-209.272	-50.5084
1.86853	-210.178	-64.898
1.88522	-211.438	-75.7633
1.9019	-212.706	-85.0619
1.91858	-214.276	-95.9269
1.93527	-215.907	-100.421
1.95195	-217.627	-109.754
1.96863	-219.569	-118.72
1.98532	-221.588	-139.54
2.002	-224.225	-134.167
2.01868	-226.065	-115.226
2.03537	-228.07	-124.341
2.05205	-230.214	-128.058
2.06873	-232.343	-135.706
2.08542	-234.742	-147.094
2.1021	-237.251	-139.872
2.11878	-239.409	-140.041
2.13547	-241.923	-139.502
2.15215	-244.063	-124.191
2.16883	-246.067	-122.59
2.18552	-248.154	-126.933
2.2022	-250.303	-120.786
2.21888	-252.184	-113.053
2.23557	-254.075	-124.772
2.25225	-256.347	-129.856
2.26893	-258.408	-120.341
2.28562	-260.363	-121.529
2.3023	-262.463	-137.956
2.31898	-264.966	-147.853
2.33567	-267.396	-146.984
2.35235	-269.87	-144.662
2.36903	-272.223	-156.694
2.38572	-275.099	-172.63
2.4024	-277.983	-169.868
2.41908	-280.767	-170.453
2.43577	-283.671	-161.419
2.45245	-286.153	-176.313
2.46913	-289.553	-157.304
2.48582	-291.401	-177.82
2.5025	-295.487	-190.627
2.51918	-297.762	-150.766
2.53587	-300.517	-172.773
2.55255	-303.527	-181.288
2.56923	-306.566	-184.674
2.58592	-309.689	-179.377
2.6026	-312.551	-166.8
2.61928	-315.254	-165.313
2.63597	-318.067	-167.579
2.65265	-320.846	-176.366
2.66933	-323.952	-176.78
2.68602	-326.744	-174.2
2.7027	-329.765	-180.14
2.71938	-332.755	-172.275
2.73607	-335.513	-175.531
2.75275	-338.609	-180.916
2.76943	-341.549	-176.874
2.78612	-344.511	-169.997
2.8028	-347.222	-163.453
2.81948	-349.965	-167.129
2.83617	-352.798	-177.974
2.85285	-355.903	-176.774
2.86953	-358.697	-175.2
2.88622	-361.749	-182.89
2.9029	-364.799	-177.059
2.91958	-367.657	-166.45
2.93627	-370.353	-180.275
2.95295	-373.672	-192.737
2.96963	-376.784	-181.661
2.98632	-379.734	-163.425
3.003	-382.237	-160.562
3.01968	-385.091	-170.553
3.03637	-387.928	-170.413
3.05305	-390.777	-170.425
3.06973	-393.614	-165.881
3.08642	-396.312	-162.702
3.1031	-399.043	-167.74
3.11978	-401.909	-167.635
3.13647	-404.636	-167.614
3.15315	-407.502	-162.571
3.16983	-410.061	-161.558
3.18652	-412.892	-169.617
3.2032	-415.72	-162.353
3.21988	-418.31	-161.965
3.23657	-421.125	-165.412
3.25325	-423.829	-166.956
3.26993	-426.695	-169.365
3.28662	-429.48	-160.484
3.3033	-432.05	-157.587
3.31998	-434.738	-172.364
3.33667	-437.801	-175.631
3.35335	-440.598	-172.406
3.37003	-443.554	-165.267
3.38672	-446.113	-165.121
3.4034	-449.064	-176.072
3.42008	-451.988	-159.225
3.43677	-454.376	-153.011
3.45345	-457.093	-158.217
3.47013	-459.656	-158.591
3.48682	-462.385	-171.86
3.5035	-465.39	-184.591
3.52018	-468.544	-195.334
3.53687	-471.908	-191.121
3.55355	-474.921	-176.554
3.57023	-477.799	-173.609
3.58692	-480.714	-179.753
3.6036	-483.796	-179.726
3.62028	-486.711	-182.999
3.63697	-489.902	-175.393
3.65365	-492.563	-178.091
3.67033	-495.845	-187.024
3.68702	-498.803	-163.248
3.7037	-501.292	-149.974
3.72038	-503.808	-224.393
3.73707	-508.779	-220.577
3.75375	-511.167	-144.664
3.77043	-513.606	-165.178
3.78712	-516.679	-183.146
3.8038	-519.717	-171.729
3.82048	-522.409	-179.43
3.83717	-525.704	-186.325
3.85385	-528.626	-178.858
3.87053	-531.672	-171.999
3.88722	-534.365	-186.633
3.9039	-537.899	-177.012
3.92058	-540.271	-162.515
3.93727	-543.322	-173.654
3.95395	-546.066	-168.565
3.97063	-548.946	-167.908
3.98732	-551.668	-160.092
4.004	-554.288	-140.287
4.02068	-556.349	-172.203
4.03737	-560.034	-144.777
4.05405	-561.18	1012.43
4.07073	-526.252	-214.667
4.08742	-568.342	-1312.42
4.1041	-570.044	-133.283
4.12078	-572.79	-159.942
4.13747	-575.38	-159.433
4.15415	-578.109	-166.446
4.17083	-580.934	-166.202
4.18752	-583.655	-158.69
4.2042	-586.229	-163.454
4.22088	-589.109	-179.383
4.23757	-592.214	-172.935
4.25425	-594.879	-165.89
4.27093	-597.75	-170.539