File: sem2/lab/dragforce/data/water/DSC_1735_L.txt
2.06873	-208.711	-60.2291
2.08542	-209.89	-69.6874
2.1021	-211.036	-89.8655
2.11878	-212.889	-115.121
2.13547	-214.877	-94.2714
2.15215	-216.034	-87.3585
2.16883	-217.792	-113.084
2.18552	-219.808	-123.333
2.2022	-221.907	-128.208
2.21888	-224.086	-148.889
2.23557	-226.875	-172.808
2.25225	-229.852	-155.046
2.26893	-232.048	-152.081
2.28562	-234.926	-178.722
2.3023	-238.012	-202.443
2.31898	-241.681	-212.079
2.33567	-245.088	-214.927
2.35235	-248.852	-211.56
2.36903	-252.147	-210.727
2.38572	-255.883	-222.622
2.4024	-259.575	-212.033
2.41908	-262.958	-214.46
2.43577	-266.731	-208.822
2.45245	-269.926	-186.622
2.46913	-272.958	-183.941
2.48582	-276.064	-198.908
2.5025	-279.595	-201.99
2.51918	-282.803	-188.669
2.53587	-285.89	-182.663
2.55255	-288.898	-182.187
2.56923	-291.969	-190.416
2.58592	-295.252	-183.922
2.6026	-298.106	-204.979
2.61928	-302.091	-206.815
2.63597	-305.007	-188.079
2.65265	-308.367	-208.429
2.66933	-311.961	-223.346
2.68602	-315.819	-233.76
2.7027	-319.761	-238.49
2.71938	-323.777	-240.815
2.73607	-327.796	-245.848
2.75275	-331.98	-242.42
2.76943	-335.885	-237.416
2.78612	-339.902	-242.789
2.8028	-343.986	-242.146
2.81948	-347.981	-245.217
2.83617	-352.168	-244.324
2.85285	-356.133	-242.422
2.86953	-360.257	-257.29
2.88622	-364.718	-260.061
2.9029	-368.934	-253.784
2.91958	-373.186	-261.906
2.93627	-377.673	-259.962
2.95295	-381.86	-254.684
2.96963	-386.171	-269.166
2.98632	-390.841	-263.699
3.003	-394.97	-247.433
3.01968	-399.098	-264.101
3.03637	-403.782	-262.752
3.05305	-407.865	-248.126
3.06973	-412.061	-242.416
3.08642	-415.953	-236.905
3.1031	-419.966	-240.908
3.11978	-423.992	-235.018
3.13647	-427.808	-230.722
3.15315	-431.69	-219.505
3.16983	-435.132	-213.025
3.18652	-438.798	-207.922
3.2032	-442.07	-205.089
3.21988	-445.641	-211.627
3.23657	-449.131	-199.564
3.25325	-452.3	-209.129
3.26993	-456.109	-209.263
3.28662	-459.282	-180.199
3.3033	-462.122	-204.435
3.31998	-466.104	-235.239
3.33667	-469.971	-238.481
3.35335	-474.061	-238.849
3.37003	-477.94	-237.584
3.38672	-481.988	-218.81
3.4034	-485.241	-215.864
3.42008	-489.191	-234.989
3.43677	-493.082	-237.345
3.45345	-497.11	-238.874
3.47013	-501.053	-240.124
3.48682	-505.123	-241.017
3.5035	-509.094	-236.792
3.52018	-513.023	-258.071
3.53687	-517.705	-273.531
3.55355	-522.15	-299.266
3.57023	-527.691	-237.212
3.58692	-530.065	-193.568
3.6036	-534.15	-252.174
3.62028	-538.479	-255.759
3.63697	-542.684	-242.98
3.65365	-546.587	-248.25
3.67033	-550.967	-245.692
3.68702	-554.785	-219.211
3.7037	-558.281	-220.544
3.72038	-562.144	-233.283
3.73707	-566.065	-228.378
3.75375	-569.764	-211.667
3.77043	-573.128	-214.092
3.78712	-576.907	-215.203
3.8038	-580.308	-219.368
3.82048	-584.227	-220.833
3.83717	-587.677	-215.143
3.85385	-591.406	-217.822
3.87053	-594.945	-210.712