File: sem2/lab/dragforce/data/water/DSC_1749_L.txt
0.567233	-201.526	-26.1665
0.583917	-202.321	-30.4716
0.6006	-202.543	-37.4337
0.617283	-203.57	-56.879
0.633967	-204.441	-61.5202
0.65065	-205.623	-105.417
0.667333	-207.958	-103.574
0.684017	-209.079	-98.8003
0.7007	-211.255	-110.975
0.717383	-212.782	-115.669
0.734067	-215.114	-138.912
0.75075	-217.417	-158.669
0.767433	-220.408	-165.617
0.784117	-222.943	-174.814
0.8008	-226.241	-183.22
0.817483	-229.057	-176.65
0.834167	-232.136	-194.657
0.85085	-235.552	-213.361
0.867533	-239.255	-226.611
0.884217	-243.113	-235.485
0.9009	-247.112	-223.623
0.917583	-250.574	-221.358
0.934267	-254.498	-221.715
0.95095	-257.972	-214.378
0.967633	-261.651	-224.869
0.984317	-265.475	-215.435
1.001	-268.84	-206.132
1.01768	-272.353	-203.674
1.03437	-275.635	-205.141
1.05105	-279.198	-202.363
1.06773	-282.388	-194.675
1.08442	-285.694	-194.173
1.1011	-288.867	-206.9
1.11778	-292.597	-219.479
1.13447	-296.19	-201.394
1.15115	-299.317	-194.581
1.16783	-302.682	-211.582
1.18452	-306.377	-221.344
1.2012	-310.068	-213.371
1.21788	-313.497	-217.718
1.23457	-317.332	-230.942
1.25125	-321.202	-233.511
1.26793	-325.124	-232.503
1.28462	-328.96	-240.091
1.3013	-333.135	-247.989
1.31798	-337.235	-246.309
1.33467	-341.353	-246.682
1.35135	-345.466	-246.925
1.36803	-349.592	-249.571
1.38472	-353.793	-246.704
1.4014	-357.824	-253.086
1.41808	-362.238	-247.915
1.43477	-366.096	-248.01
1.45145	-370.513	-258.259
1.46813	-374.714	-250.598
1.48482	-378.875	-265.534
1.5015	-383.573	-265.46
1.51818	-387.732	-263.304
1.53487	-392.359	-269.897
1.55155	-396.738	-266.217
1.56823	-401.242	-266.299
1.58492	-405.623	-261.409
1.6016	-409.964	-264.263
1.61828	-414.441	-271.991
1.63497	-419.04	-271.669
1.65165	-423.505	-258.956
1.66833	-427.68	-259.089
1.68502	-432.15	-269.749
1.7017	-436.681	-264.498
1.71838	-440.976	-259.517
1.73507	-445.34	-263.363
1.75175	-449.763	-260.459
1.76843	-454.031	-240.217
1.78512	-457.779	-234.519
1.8018	-461.856	-239.263
1.81848	-465.762	-266.314
1.83517	-470.742	-262.314
1.85185	-474.515	-232.313
1.86853	-478.493	-238.869
1.88522	-482.485	-231.526
1.9019	-486.218	-236.128
1.91858	-490.364	-240.444
1.93527	-494.241	-218.503
1.95195	-497.654	-237.204
1.96863	-502.156	-240.063
1.98532	-505.664	-241.562
2.002	-510.216	-243.608
2.01868	-513.793	-251.05
2.03537	-518.593	-259.867
2.05205	-522.464	-225.965
2.06873	-526.133	-203.083
2.08542	-529.24	-256.629
2.1021	-534.695	-305.148
2.11878	-539.422	-269.57
2.13547	-543.69	-266.584
2.15215	-548.317	-270.434
2.16883	-552.713	-265.237
2.18552	-557.167	-267.735
2.2022	-561.647	-257.992
2.21888	-565.775	-257.845
2.23557	-570.25	-261.949
2.25225	-574.515	-275.556
2.26893	-579.445	-321.732
2.28562	-585.251	-291.585