File: sem2/lab/dragforce/data/water/DSC_1737_M.txt
1.21788	-204.067	-9.11921
1.23457	-204.304	-27.9293
1.25125	-204.999	-40.8347
1.26793	-205.667	-37.6252
1.28462	-206.255	-41.0706
1.3013	-207.037	-53.6055
1.31798	-208.043	-65.995
1.33467	-209.239	-83.167
1.35135	-210.818	-93.2173
1.36803	-212.35	-99.3736
1.38472	-214.134	-111.738
1.4014	-216.078	-121.726
1.41808	-218.196	-142.892
1.43477	-220.846	-149.684
1.45145	-223.19	-155.595
1.46813	-226.037	-172.161
1.48482	-228.934	-174.156
1.5015	-231.848	-178.113
1.51818	-234.878	-185.051
1.53487	-238.023	-186.929
1.55155	-241.115	-185.232
1.56823	-244.204	-181.944
1.58492	-247.186	-173.524
1.6016	-249.993	-170.774
1.61828	-252.884	-174.682
1.63497	-255.822	-161.057
1.65165	-258.258	-152.447
1.66833	-260.909	-148.213
1.68502	-263.203	-146.983
1.7017	-265.813	-149.772
1.71838	-268.2	-155.707
1.73507	-271.008	-171.669
1.75175	-273.928	-175.359
1.76843	-276.86	-180.26
1.78512	-279.943	-177.876
1.8018	-282.795	-167.176
1.81848	-285.521	-185.521
1.83517	-288.985	-200.997
1.85185	-292.228	-206.031
1.86853	-295.859	-218.062
1.88522	-299.504	-200.26
1.9019	-302.541	-196.704
1.91858	-306.067	-209.723
1.93527	-309.539	-209.153
1.95195	-313.046	-217.416
1.96863	-316.794	-211.043
1.98532	-320.088	-211.156
2.002	-323.839	-215.71
2.01868	-327.285	-214.864
2.03537	-331.009	-217.706
2.05205	-334.549	-211.612
2.06873	-338.069	-217.863
2.08542	-341.819	-218.939
2.1021	-345.375	-216.235
2.11878	-349.034	-222.347
2.13547	-352.794	-218.048
2.15215	-356.309	-215.839
2.16883	-359.995	-220.936
2.18552	-363.681	-221.528
2.2022	-367.387	-219.695
2.21888	-371.012	-220.188
2.23557	-374.734	-212.809
2.25225	-378.113	-216.72
2.26893	-381.965	-222.993
2.28562	-385.553	-216.197
2.3023	-389.179	-221.709
2.31898	-392.951	-214.81
2.33567	-396.346	-208.72
2.35235	-399.915	-209.589
2.36903	-403.34	-205.696
2.38572	-406.778	-210.14
2.4024	-410.351	-215.844
2.41908	-413.98	-222.703
2.43577	-417.782	-229.5
2.45245	-421.638	-227.977
2.46913	-425.389	-223.169
2.48582	-429.084	-226.611
2.5025	-432.95	-236.176
2.51918	-436.965	-238.838
2.53587	-440.92	-241.399
2.55255	-445.02	-249.698
2.56923	-449.251	-244.122
2.58592	-453.165	-221.965
2.6026	-456.657	-203.839
2.61928	-459.967	-219.195
2.63597	-463.971	-242.966
2.65265	-468.074	-250.267
2.66933	-472.322	-245.082
2.68602	-476.251	-234.206
2.7027	-480.136	-235.706
2.71938	-484.116	-237.047
2.73607	-488.046	-236.6
2.75275	-492.01	-238.161
2.76943	-495.993	-233.477
2.78612	-499.801	-232.278
2.8028	-503.743	-241.366
2.81948	-507.854	-241.143
2.83617	-511.789	-224.029
2.85285	-515.329	-223.814
2.86953	-519.257	-230.248
2.88622	-523.012	-219.991
2.9029	-526.597	-211.046
2.91958	-530.054	-222.258
2.93627	-534.013	-240.585
2.95295	-538.081	-238.297
2.96963	-541.965	-235.539
2.98632	-545.941	-221.359
3.003	-549.351	-225.358
3.01968	-553.46	-237.41
3.03637	-557.272	-242.455
3.05305	-561.55	-251.307
3.06973	-565.657	-241.349
3.08642	-569.603	-239.529
3.1031	-573.65	-245.259
3.11978	-577.786	-245.69
3.13647	-581.848	-251.687
3.15315	-586.184	-254.888
3.16983	-590.352	-244.525
3.18652	-594.343	-243.251
3.2032	-598.469	-230.529