File: sem2/lab/dragforce/data/water/DSC_1724_M.txt
# t	x	v
1.48482	-0.287002	-0.463922
1.5015	-0.313133	-2.46593
1.51818	-0.369281	-6.39997
1.53487	-0.526678	-15.8721
1.55155	-0.898881	-18.5521
1.56823	-1.1457	-12.1871
1.58492	-1.30552	-24.9081
1.6016	-1.9768	-42.9709
1.61828	-2.73932	-54.9696
1.63497	-3.81095	-61.0531
1.65165	-4.77646	-63.5692
1.66833	-5.93205	-73.7101
1.68502	-7.23592	-85.0898
1.7017	-8.77121	-105.636
1.71838	-10.7606	-123.945
1.73507	-12.9068	-132.871
1.75175	-15.1941	-146.95
1.76843	-17.8101	-155.619
1.78512	-20.3866	-159.079
1.8018	-23.118	-168.464
1.81848	-26.0077	-178.619
1.83517	-29.078	-182.219
1.85185	-32.0877	-178.044
1.86853	-35.0187	-178.835
1.88522	-38.0549	-181.974
1.9019	-41.0906	-187.03
1.91858	-44.2954	-183.011
1.93527	-47.197	-170.347
1.95195	-49.9793	-168.83
1.96863	-52.8303	-165.675
1.98532	-55.5074	-159.859
2.002	-58.1643	-165.758
2.01868	-61.0381	-170.115
2.03537	-63.8404	-173.722
2.05205	-66.8347	-165.832
2.06873	-69.3737	-158.217
2.08542	-72.1138	-181.277
2.1021	-75.4223	-195.265
2.11878	-78.6292	-192.977
2.13547	-81.8613	-188.343
2.15215	-84.9136	-179.951
2.16883	-87.8657	-182.821
2.18552	-91.0137	-188.376
2.2022	-94.1511	-198.1
2.21888	-97.6237	-228.302
2.23557	-101.769	-214.406
2.25225	-104.778	-180.444
2.26893	-107.79	-190.729
2.28562	-111.142	-210.182
2.3023	-114.803	-215.936
2.31898	-118.347	-213.972
2.33567	-121.942	-222.704
2.35235	-125.778	-221.108
2.36903	-129.32	-219.75
2.38572	-133.11	-228.714
2.4024	-136.951	-229.184
2.41908	-140.757	-227.556
2.43577	-144.544	-223.202
2.45245	-148.205	-222.784
2.46913	-151.978	-229.927
2.48582	-155.876	-228.806
2.5025	-159.612	-216.543
2.51918	-163.102	-219.22
2.53587	-166.927	-228.727
2.55255	-170.734	-218.729
2.56923	-174.225	-220.854
2.58592	-178.103	-224.423
2.6026	-181.713	-210.002
2.61928	-185.11	-216.646
2.63597	-188.942	-229.705
2.65265	-192.774	-222.979
2.66933	-196.382	-214.669
2.68602	-199.937	-224.928
2.7027	-203.887	-232.402
2.71938	-207.692	-219.827
2.73607	-211.222	-217.157
2.75275	-214.937	-221.463
2.76943	-218.612	-217.801
2.78612	-222.205	-218.461
2.8028	-225.901	-224.694
2.81948	-229.702	-229.772
2.83617	-233.568	-236.044
2.85285	-237.578	-222.94
2.86953	-241.006	-213.072
2.88622	-244.688	-223.808
2.9029	-248.474	-223.008
2.91958	-252.129	-233.213
2.93627	-256.256	-230.128
2.95295	-259.807	-230.068
2.96963	-263.932	-237.16
2.98632	-267.72	-238.519
3.003	-271.891	-250.853
3.01968	-276.091	-245.349
3.03637	-280.077	-236.931
3.05305	-283.996	-237.451
3.06973	-288	-239.644
3.08642	-291.992	-238.438
3.1031	-295.956	-236.856
3.11978	-299.895	-236.518
3.13647	-303.848	-237.123
3.15315	-307.807	-238.56
3.16983	-311.808	-237.909
3.18652	-315.746	-238.304
3.2032	-319.759	-237.38
3.21988	-323.666	-219.618
3.23657	-327.087	-215.457
3.25325	-330.855	-226.258
3.26993	-334.637	-225.863
3.28662	-338.391	-223.699
3.3033	-342.101	-229.212
3.31998	-346.04	-233.687
3.33667	-349.898	-232.96
3.35335	-353.813	-228.694
3.37003	-357.529	-231.058
3.38672	-361.522	-231.173
3.4034	-365.242	-225.276
3.42008	-369.039	-232.441
3.43677	-372.998	-236.5
3.45345	-376.93	-231.323
3.47013	-380.717	-231.872
3.48682	-384.667	-233.749
3.5035	-388.516	-217.066
3.52018	-391.91	-200.776
3.53687	-395.215	-180.385