File: sem2/lab/dragforce/data/water/DSC_1732_L.txt
2.3023	-199.203	-3.52351
2.31898	-199.304	-27.5125
2.33567	-200.121	-30.1099
2.35235	-200.308	-34.5376
2.36903	-201.273	-55.3891
2.38572	-202.157	-58.4416
2.4024	-203.223	-84.664
2.41908	-204.981	-94.0759
2.43577	-206.362	-93.6843
2.45245	-208.107	-114.307
2.46913	-210.176	-128.567
2.48582	-212.397	-145.772
2.5025	-215.04	-159.477
2.51918	-217.718	-170.188
2.53587	-220.719	-185.758
2.55255	-223.917	-190.269
2.56923	-227.067	-188.245
2.58592	-230.198	-192.636
2.6026	-233.495	-206.002
2.61928	-237.071	-219.548
2.63597	-240.821	-215.189
2.65265	-244.251	-214.024
2.66933	-247.962	-208.898
2.68602	-251.222	-207.031
2.7027	-254.87	-207.842
2.71938	-258.157	-188.988
2.73607	-261.176	-180.088
2.75275	-264.166	-179.604
2.76943	-267.169	-179.724
2.78612	-270.162	-177.602
2.8028	-273.095	-173.907
2.81948	-275.965	-176.445
2.83617	-278.982	-177.978
2.85285	-281.904	-177.683
2.86953	-284.911	-166.597
2.88622	-287.462	-184.018
2.9029	-291.051	-201.978
2.91958	-294.202	-188.163
2.93627	-297.329	-202.635
2.95295	-300.963	-207.32
2.96963	-304.247	-210.3
2.98632	-307.98	-216.776
3.003	-311.48	-214.827
3.01968	-315.148	-231.907
3.03637	-319.218	-238.863
3.05305	-323.118	-235.829
3.06973	-327.087	-241.688
3.08642	-331.182	-242.505
3.1031	-335.178	-240.866
3.11978	-339.219	-242.09
3.13647	-343.256	-239.334
3.15315	-347.205	-240.25
3.16983	-351.272	-240.041
3.18652	-355.214	-241.347
3.2032	-359.325	-240.281
3.21988	-363.232	-238.386
3.23657	-367.279	-242.168
3.25325	-371.312	-239.927
3.26993	-375.285	-238.686
3.28662	-379.276	-237.476
3.3033	-383.209	-241.562
3.31998	-387.336	-257.967
3.33667	-391.816	-259.102
3.35335	-395.982	-244.898
3.37003	-399.988	-237.794
3.38672	-403.916	-249.127
3.4034	-408.3	-250.792
3.42008	-412.284	-237.661
3.43677	-416.23	-235.075
3.45345	-420.128	-234.823
3.47013	-424.065	-232.981
3.48682	-427.902	-212.607
3.5035	-431.159	-151.727
3.52018	-432.964	-228.629
3.53687	-438.788	-273.19
3.55355	-442.08	-234.649
3.57023	-446.617	-230.57
3.58692	-449.773	-192.612
3.6036	-453.044	-189.603
3.62028	-456.1	-201.488
3.63697	-459.767	-208.606
3.65365	-463.06	-215.763
3.67033	-466.966	-218.855
3.68702	-470.363	-213.006
3.7037	-474.074	-227.44
3.72038	-477.951	-229.25
3.73707	-481.723	-223.135
3.75375	-485.397	-222.847
3.77043	-489.159	-229.385
3.78712	-493.05	-236.507
3.8038	-497.05	-238.862
3.82048	-501.021	-238.453
3.83717	-505.006	-241.634
3.85385	-509.083	-246.541
3.87053	-513.233	-246.653
3.88722	-517.313	-269.876
3.9039	-522.238	-256.862
3.92058	-525.884	-238.567
3.93727	-530.198	-256.23
3.95395	-534.433	-260.099
3.97063	-538.876	-259.384
3.98732	-543.088	-265.318
4.004	-547.729	-267.201
4.02068	-552.004	-260.754
4.03737	-556.43	-269.101
4.05405	-560.983	-263.651
4.07073	-565.227	-263.312
4.08742	-569.768	-260.348
4.1041	-573.914	-235.725
4.12078	-577.634	-251.759
4.13747	-582.314	-300.469
4.15415	-587.659	-244.597