File: sem2/lab/dragforce/data/water/DSC_1752_L.txt
0.784117	-196.673	-13.2112
0.8008	-196.941	-27.0159
0.817483	-197.574	-44.8833
0.834167	-198.438	-41.951
0.85085	-198.974	-37.0281
0.867533	-199.674	-66.3577
0.884217	-201.188	-94.2202
0.9009	-202.818	-90.9354
0.917583	-204.222	-113.145
0.934267	-206.593	-131.469
0.95095	-208.609	-127.851
0.967633	-210.859	-148.651
0.984317	-213.569	-155.206
1.001	-216.038	-159.323
1.01768	-218.885	-176.344
1.03437	-221.922	-179.124
1.05105	-224.862	-191.608
1.06773	-228.315	-202.162
1.08442	-231.607	-195.516
1.1011	-234.839	-209.51
1.11778	-238.598	-221.605
1.13447	-242.233	-215.443
1.15115	-245.787	-218.656
1.16783	-249.529	-214.756
1.18452	-252.952	-208.44
1.2012	-256.484	-202.996
1.21788	-259.726	-194.504
1.23457	-262.974	-182.499
1.25125	-265.815	-174.979
1.26793	-268.812	-182.35
1.28462	-271.899	-179.303
1.3013	-274.795	-182.755
1.31798	-277.997	-177.844
1.33467	-280.729	-172.343
1.35135	-283.748	-183.434
1.36803	-286.85	-185.092
1.38472	-289.924	-192.994
1.4014	-293.289	-205.742
1.41808	-296.789	-206.317
1.43477	-300.173	-208.959
1.45145	-303.761	-222.051
1.46813	-307.582	-229.55
1.48482	-311.42	-230.351
1.5015	-315.268	-245.896
1.51818	-319.625	-248.149
1.53487	-323.548	-238.031
1.55155	-327.567	-242.044
1.56823	-331.624	-245.804
1.58492	-335.769	-249.576
1.6016	-339.952	-252.037
1.61828	-344.179	-250.509
1.63497	-348.311	-250.674
1.65165	-352.543	-251.45
1.66833	-356.701	-254.015
1.68502	-361.018	-259.892
1.7017	-365.372	-256.325
1.71838	-369.571	-250.552
1.73507	-373.732	-250.005
1.75175	-377.913	-267.254
1.76843	-382.65	-277.835
1.78512	-387.183	-267.279
1.8018	-391.568	-259.158
1.81848	-395.831	-265.492
1.83517	-400.427	-272.456
1.85185	-404.922	-262.446
1.86853	-409.184	-263.014
1.88522	-413.697	-263.619
1.9019	-417.98	-268.464
1.91858	-422.655	-276.596
1.93527	-427.209	-266.368
1.95195	-431.543	-261.897
1.96863	-435.947	-275.224
1.98532	-440.726	-267.033
2.002	-444.857	-263.576
2.01868	-449.521	-264.213
2.03537	-453.673	-240.709
2.05205	-457.553	-233.031
2.06873	-461.449	-231.639
2.08542	-465.282	-230.727
2.1021	-469.147	-229.426
2.11878	-472.937	-218.548
2.13547	-476.44	-198.258
2.15215	-479.552	-192.383
2.16883	-482.859	-190.725
2.18552	-485.916	-191.598
2.2022	-489.252	-190.285
2.21888	-492.265	-169.701
2.23557	-494.914	-187.633
2.25225	-498.526	-210.483
2.26893	-501.937	-242.408
2.28562	-506.614	-224.241
2.3023	-509.419	-192.467
2.31898	-513.036	-209.996
2.33567	-516.426	-214.334
2.35235	-520.188	-222.693
2.36903	-523.857	-219.134
2.38572	-527.499	-223.072
2.4024	-531.3	-236.084
2.41908	-535.377	-243.773
2.43577	-539.434	-241.015
2.45245	-543.419	-213.519
2.46913	-546.558	-265.428
2.48582	-552.275	-279.142
2.5025	-555.872	-238.461
2.51918	-560.232	-262.615
2.53587	-564.635	-260.649
2.55255	-568.929	-256.87
2.56923	-573.206	-264.323
2.58592	-577.748	-264.359
2.6026	-582.027	-253.209
2.61928	-586.197	-169.702
2.63597	-587.689	13.9143
2.65265	-585.733	136.557