File: sem2/lab/dragforce/data/water/DSC_1725_L.txt
# t x v
1.21788	-198.967	-6.48016
1.23457	-199.068	-6.23399
1.25125	-199.175	-7.43418
1.26793	-199.316	-25.1986
1.28462	-200.016	-31.4769
1.3013	-200.366	-36.456
1.31798	-201.233	-55.5012
1.33467	-202.218	-60.7157
1.35135	-203.258	-66.8362
1.36803	-204.448	-87.1964
1.38472	-206.168	-106.716
1.4014	-208.009	-118.39
1.41808	-210.118	-128.924
1.43477	-212.311	-150.258
1.45145	-215.132	-152.586
1.46813	-217.402	-155.937
1.48482	-220.335	-177.322
1.5015	-223.318	-187.246
1.51818	-226.583	-204.253
1.53487	-230.134	-199.835
1.55155	-233.25	-201.613
1.56823	-236.861	-212.581
1.58492	-240.344	-219.153
1.6016	-244.173	-218.39
1.61828	-247.631	-213.426
1.63497	-251.295	-221.521
1.65165	-255.022	-209.742
1.66833	-258.293	-198.639
1.68502	-261.65	-202.552
1.7017	-265.051	-191.651
1.71838	-268.045	-177.311
1.73507	-270.968	-173.4
1.75175	-273.83	-164.917
1.76843	-276.47	-166.648
1.78512	-279.391	-175.069
1.8018	-282.312	-175.19
1.81848	-285.236	-177.418
1.83517	-288.232	-180.02
1.85185	-291.243	-180.54
1.86853	-294.256	-183.028
1.88522	-297.35	-211.674
1.9019	-301.319	-199.491
1.91858	-304.006	-180.266
1.93527	-307.334	-210.426
1.95195	-311.028	-215.736
1.96863	-314.532	-219.34
1.98532	-318.346	-233.433
2.002	-322.321	-236.215
2.01868	-326.228	-236.207
2.03537	-330.202	-238.941
2.05205	-334.201	-240.783
2.06873	-338.236	-239.708
2.08542	-342.199	-238.367
2.1021	-346.19	-239.205
2.11878	-350.18	-241.823
2.13547	-354.259	-235.611
2.15215	-358.042	-235.01
2.16883	-362.1	-239.306
2.18552	-366.027	-238.543
2.2022	-370.06	-242.273
2.21888	-374.111	-237.737
2.23557	-377.992	-238.987
2.25225	-382.085	-244.958
2.26893	-386.166	-247.322
2.28562	-390.337	-243.632
2.3023	-394.295	-243.435
2.31898	-398.46	-249.621
2.33567	-402.624	-254.271
2.35235	-406.944	-260.786
2.36903	-411.325	-251.149
2.38572	-415.324	-245.608
2.4024	-419.52	-255.143
2.41908	-423.837	-259.505
2.43577	-428.179	-248.38
2.45245	-432.125	-236.647
2.46913	-436.075	-251.784
2.48582	-440.526	-246.121
2.5025	-444.288	-231.816
2.51918	-448.261	-236.651
2.53587	-452.184	-224.651
2.55255	-455.757	-188.563
2.56923	-458.476	-224.465
2.58592	-463.246	-253.971
2.6026	-466.95	-236.786
2.61928	-471.147	-251.921
2.63597	-475.355	-241.908
2.65265	-479.219	-229.571
2.66933	-483.015	-238.195
2.68602	-487.167	-237.153
2.7027	-490.928	-235.934
2.71938	-495.039	-248.269
2.73607	-499.212	-244.038
2.75275	-503.182	-234.73
2.76943	-507.045	-243.118
2.78612	-511.294	-250.618
2.8028	-515.407	-262.317
2.81948	-520.046	-263.24
2.83617	-524.19	-247.14
2.85285	-528.293	-215.914
2.86953	-531.395	-264.198
2.88622	-537.108	-304.061
2.9029	-541.54	-273.656
2.91958	-546.239	-282.126
2.93627	-550.954	-280.005
2.95295	-555.582	-281.245
2.96963	-560.338	-265.7
2.98632	-564.447	-265.446
3.003	-569.195	-270.743
3.01968	-573.481	-272.259
3.03637	-578.279	-271.976