File: sem2/lab/dragforce/data/water/DSC_1746_L.txt
0.5005	-205.75	-28.4544
0.517183	-206.449	-52.6944
0.533867	-207.508	-59.3305
0.55055	-208.429	-60.7118
0.567233	-209.534	-90.2334
0.583917	-211.44	-116.123
0.6006	-213.408	-118.038
0.617283	-215.378	-119.91
0.633967	-217.409	-146.553
0.65065	-220.268	-166.038
0.667333	-222.95	-160.879
0.684017	-225.636	-169.292
0.7007	-228.598	-179.579
0.717383	-231.628	-185.422
0.734067	-234.785	-204.495
0.75075	-238.452	-212.922
0.767433	-241.89	-211.42
0.784117	-245.506	-220.486
0.8008	-249.247	-210.736
0.817483	-252.538	-217.935
0.834167	-256.518	-216.091
0.85085	-259.748	-205.885
0.867533	-263.388	-205.382
0.884217	-266.601	-200.437
0.9009	-270.076	-203.503
0.917583	-273.391	-189.094
0.934267	-276.385	-181.039
0.95095	-279.432	-177.031
0.967633	-282.292	-150.832
0.984317	-284.464	-158.879
1.001	-287.593	-193.193
1.01768	-290.911	-197.201
1.03437	-294.173	-188.894
1.05105	-297.213	-186.589
1.06773	-300.399	-189.018
1.08442	-303.52	-190.987
1.1011	-306.772	-205.772
1.11778	-310.386	-204.497
1.13447	-313.595	-208.358
1.15115	-317.338	-220.786
1.16783	-320.962	-213.872
1.18452	-324.475	-225.736
1.2012	-328.494	-236.865
1.21788	-332.378	-237.658
1.23457	-336.424	-243.278
1.25125	-340.495	-240.815
1.26793	-344.459	-238.466
1.28462	-348.452	-238.648
1.3013	-352.422	-235.631
1.31798	-356.314	-239.65
1.33467	-360.418	-244.929
1.35135	-364.487	-240.291
1.36803	-368.436	-241.414
1.38472	-372.542	-240.355
1.4014	-376.456	-233.461
1.41808	-380.332	-241.811
1.43477	-384.524	-245.453
1.45145	-388.522	-238.539
1.46813	-392.484	-244.901
1.48482	-396.693	-251.398
1.5015	-400.872	-240.804
1.51818	-404.728	-237.75
1.53487	-408.805	-243.254
1.55155	-412.845	-250.287
1.56823	-417.156	-256.056
1.58492	-421.389	-250.378
1.6016	-425.51	-245.646
1.61828	-429.585	-228.58
1.63497	-433.137	-214.96
1.65165	-436.757	-222.924
1.66833	-440.576	-232.572
1.68502	-444.518	-215.79
1.7017	-447.776	-201.847
1.71838	-451.253	-195.768
1.73507	-454.308	-178.207
1.75175	-457.199	-210.082
1.76843	-461.318	-219.809
1.78512	-464.533	-207.775
1.8018	-468.25	-234.509
1.81848	-472.358	-237.453
1.83517	-476.173	-216.263
1.85185	-479.574	-216.72
1.86853	-483.405	-228.974
1.88522	-487.214	-241.814
1.9019	-491.473	-244.115
1.91858	-495.359	-185.341
1.93527	-497.657	-237.951
1.95195	-503.299	-291.128
1.96863	-507.371	-264.576
1.98532	-512.127	-267.253
2.002	-516.289	-239.383
2.01868	-520.114	-239.861
2.03537	-524.292	-246.251
2.05205	-528.331	-266.403
2.06873	-533.181	-272.36
2.08542	-537.419	-269.302
2.1021	-542.167	-270.973
2.11878	-546.46	-252.368
2.13547	-550.587	-236.026
2.15215	-554.335	-231.258
2.16883	-558.304	-293.653
2.18552	-564.134	-328.461
2.2022	-569.263	-257.913
2.21888	-572.739	-192.797
2.23557	-575.696	-272.811
2.25225	-581.842	-347.505
2.26893	-587.292	-123.61
2.28562	-585.967	170.414