File: sem2/lab/dragforce/data/water/DSC_1750_L.txt
1.65165	-218.072	-64.6751
1.66833	-219.158	-67.9062
1.68502	-220.337	-69.3979
1.7017	-221.474	-82.0745
1.71838	-223.076	-107.305
1.73507	-225.054	-114.224
1.75175	-226.887	-115.484
1.76843	-228.907	-128.309
1.78512	-231.169	-153.863
1.8018	-234.041	-173.292
1.81848	-236.951	-178.967
1.83517	-240.013	-185.123
1.85185	-243.128	-192.917
1.86853	-246.45	-203.106
1.88522	-249.905	-200.297
1.9019	-253.133	-209.521
1.91858	-256.896	-233.804
1.93527	-260.934	-216.689
1.95195	-264.126	-189.024
1.96863	-267.241	-216.15
1.98532	-271.338	-231.734
2.002	-274.974	-208.143
2.01868	-278.283	-194.421
2.03537	-281.461	-192.416
2.05205	-284.703	-193.72
2.06873	-287.924	-187.479
2.08542	-290.959	-183.977
2.1021	-294.063	-185.676
2.11878	-297.154	-182.509
2.13547	-300.153	-174.078
2.15215	-302.963	-181.579
2.16883	-306.212	-202.949
2.18552	-309.734	-206.629
2.2022	-313.106	-198.62
2.21888	-316.362	-214.927
2.23557	-320.278	-228.224
2.25225	-323.977	-223.135
2.26893	-327.723	-229.716
2.28562	-331.642	-239.582
2.3023	-335.717	-241.714
2.31898	-339.707	-240.947
2.33567	-343.756	-243.523
2.35235	-347.832	-245.682
2.36903	-351.954	-247.035
2.38572	-356.075	-246.364
2.4024	-360.174	-243.952
2.41908	-364.215	-247.566
2.43577	-368.435	-245.312
2.45245	-372.4	-235.135
2.46913	-376.281	-244.996
2.48582	-380.575	-264.186
2.5025	-385.096	-264.581
2.51918	-389.403	-257.657
2.53587	-393.693	-258.502
2.55255	-398.029	-255.738
2.56923	-402.226	-260.055
2.58592	-406.706	-264.747
2.6026	-411.06	-257.606
2.61928	-415.301	-261.683
2.63597	-419.791	-264.136
2.65265	-424.114	-260.29
2.66933	-428.476	-254.478
2.68602	-432.606	-252.448
2.7027	-436.899	-251.658
2.71938	-441.003	-247.746
2.73607	-445.166	-242.469
2.75275	-449.093	-230.804
2.76943	-452.867	-221.041
2.78612	-456.468	-211.009
2.8028	-459.908	-210.536