File: sem2/lab/dragforce/data/water/DSC_1748_L.txt
4.92158	-199.987	-1.97481
4.93827	-200.063	-19.7026
4.95495	-200.645	-32.497
4.97163	-201.147	-41.4184
4.98832	-202.027	-57.4737
5.005	-203.065	-63.684
5.02168	-204.152	-88.7361
5.03837	-206.026	-116.553
5.05505	-208.041	-123.344
5.07173	-210.141	-145.886
5.08842	-212.908	-149.21
5.1051	-215.12	-152.154
5.12178	-217.985	-176.283
5.13847	-221.002	-182.979
5.15515	-224.091	-182.272
5.17183	-227.084	-181.501
5.18852	-230.147	-184.14
5.2052	-233.228	-202.569
5.22188	-236.906	-214.169
5.23857	-240.374	-215.081
5.25525	-244.082	-231.349
5.27193	-248.093	-223.177
5.28862	-251.529	-212.601
5.3053	-255.187	-226.532
5.32198	-259.088	-229.728
5.33867	-262.852	-208.887
5.35535	-266.057	-186.492
5.37203	-269.075	-180.303
5.38872	-272.074	-178.029
5.4054	-275.015	-169.605
5.42208	-277.733	-155.736
5.43877	-280.212	-160.387
5.45545	-283.084	-170.578
5.47213	-285.903	-166.467
5.48882	-288.639	-160.153
5.5055	-291.247	-165.839
5.52218	-294.172	-173.228
5.53887	-297.027	-178.88
5.55555	-300.141	-184.632
5.57223	-303.187	-180.74
5.58892	-306.172	-197.36
5.6056	-309.773	-210.581
5.62228	-313.198	-215.951
5.63897	-316.978	-211.999
5.65565	-320.272	-217.418
5.67233	-324.233	-235.928
5.68902	-328.144	-237.02
5.7057	-332.141	-241.358
5.72238	-336.197	-239.073
5.73907	-340.118	-231.109
5.75575	-343.908	-221.496
5.77243	-347.509	-217.579
5.78912	-351.168	-214.007
5.8058	-354.65	-214.141
5.82248	-358.313	-222.202
5.83917	-362.064	-213.466
5.85585	-365.436	-214.514
5.87253	-369.221	-221.358
5.88922	-372.822	-211.714
5.9059	-376.286	-221.853
5.92258	-380.225	-223.195
5.93927	-383.733	-221.94
5.95595	-387.63	-235.451
5.97263	-391.589	-233.868
5.98932	-395.433	-226.175
6.006	-399.136	-231.349
6.02268	-403.153	-231.684
6.03937	-406.866	-228.596
6.05605	-410.78	-233.61
6.07273	-414.661	-231.476
6.08942	-418.504	-229.71
6.1061	-422.326	-231.381
6.12278	-426.224	-227.618
6.13947	-429.921	-217.533
6.15615	-433.483	-224.14
6.17283	-437.399	-245.491
6.18952	-441.674	-229.495
6.2062	-445.057	-229.564
6.22288	-449.334	-219.779
6.23957	-452.39	-204.568
6.25625	-456.159	-187.285
6.27293	-458.639	-174.659
6.28962	-461.987	-236.983
6.3063	-466.547	-236.61
6.32298	-469.882	-183.244
6.33967	-472.661	-164.016
6.35635	-475.355	-176.525
6.37303	-478.551	-216.816
6.38972	-482.589	-243.354
6.4064	-486.671	-242.434
6.42308	-490.678	-246.854
6.43977	-494.908	-247.157
6.45645	-498.925	-233.917
6.47313	-502.713	-220.412
6.48982	-506.279	-224.509
6.5065	-510.204	-338.717
6.52318	-517.581	-241.929
6.53987	-518.276	-97.396
6.55655	-520.831	-129.935
6.57323	-522.612	-238.928
6.58992	-528.803	-292.105
6.6066	-532.358	-235.85
6.62328	-536.673	-250.841
6.63997	-540.728	-236.891
6.65665	-544.577	-243.737
6.67333	-548.861	-254.654
6.69002	-553.074	-251.225