File: sem2/lab/dragforce/data/water/DSC_1727_S.txt
0.2002	-197.848	-57.3428
0.216883	-199.17	-75.9696
0.233567	-200.383	-89.9597
0.25025	-202.172	-108.047
0.266933	-203.988	-106.641
0.283617	-205.73	-105.828
0.3003	-207.52	-118.736
0.316983	-209.692	-142.171
0.333667	-212.263	-152.789
0.35035	-214.79	-149.832
0.367033	-217.263	-145.511
0.383717	-219.645	-148.503
0.4004	-222.218	-153.964
0.417083	-224.783	-151.88
0.433767	-227.286	-147.047
0.45045	-229.689	-132.667
0.467133	-231.712	-118.07
0.483817	-233.629	-112.89
0.5005	-235.479	-118.795
0.517183	-237.592	-117.333
0.533867	-239.394	-112.642
0.55055	-241.351	-118.001
0.567233	-243.331	-119.995
0.583917	-245.355	-122.305
0.6006	-247.412	-127.99
0.617283	-249.625	-138.57
0.633967	-252.036	-143.509
0.65065	-254.414	-148.226
0.667333	-256.982	-148.579
0.684017	-259.371	-153.389
0.7007	-262.1	-152.932
0.717383	-264.474	-154.082
0.734067	-267.241	-159.292
0.75075	-269.789	-157.191
0.767433	-272.486	-161.438
0.784117	-275.176	-161.256
0.8008	-277.866	-157.562
0.817483	-280.433	-160.246
0.834167	-283.213	-146.918
0.85085	-285.335	-152.497
0.867533	-288.302	-156.583
0.884217	-290.56	-153.668
0.9009	-293.429	-170.642
0.917583	-296.254	-185.801
0.934267	-299.629	-172.363
0.95095	-302.005	-136.915
0.967633	-304.197	-146.639
0.984317	-306.898	-158.049
1.001	-309.47	-158.545
1.01768	-312.188	-167.171
1.03437	-315.048	-158.771
1.05105	-317.486	-154.765
1.06773	-320.212	-166.55
1.08442	-323.043	-164.027
1.1011	-325.685	-156.157
1.11778	-328.253	-159.785
1.13447	-331.017	-156.632
1.15115	-333.48	-157.344
1.16783	-336.267	-169.965
1.18452	-339.151	-172.934
1.2012	-342.037	-176.33
1.21788	-345.034	-181.819
1.23457	-348.104	-174.378
1.25125	-350.853	-167.475
1.26793	-353.692	-179.031
1.28462	-356.826	-176.617
1.3013	-359.585	-172.57
1.31798	-362.584	-180.897
1.33467	-365.621	-177.38
1.35135	-368.503	-179.987
1.36803	-371.627	-183.042
1.38472	-374.61	-175.909
1.4014	-377.496	-174.776
1.41808	-380.442	-175.55
1.43477	-383.354	-177.239
1.45145	-386.356	-179.341
1.46813	-389.338	-176.23
1.48482	-392.236	-174.011
1.5015	-395.144	-171.217
1.51818	-397.949	-161.324
1.53487	-400.527	-176.099
1.55155	-403.825	-211.301
1.56823	-407.577	-197.615
1.58492	-410.419	-166.626
1.6016	-413.137	-169.604
1.61828	-416.078	-183.31
1.63497	-419.253	-180.954
1.65165	-422.116	-177.837
1.66833	-425.187	-180.774
1.68502	-428.148	-178.844
1.7017	-431.154	-178.148
1.71838	-434.092	-181.517
1.73507	-437.211	-180.956
1.75175	-440.13	-172.999
1.76843	-442.983	-158.015