File: sem2/lab/dragforce/data/water/DSC_1729_L.txt
0.967633	-203.408	2.08569
0.984317	-203.366	2.019
1.001	-203.341	2.92634
1.01768	-203.269	2.40381
1.03437	-203.261	0.0874515
1.05105	-203.266	-1.12404
1.06773	-203.298	-7.79291
1.08442	-203.526	-30.2172
1.1011	-204.307	-36.1858
1.11778	-204.733	-39.7717
1.13447	-205.634	-50.7972
1.15115	-206.428	-55.8677
1.16783	-207.498	-62.4519
1.18452	-208.512	-88.0461
1.2012	-210.436	-115.169
1.21788	-212.355	-110.658
1.23457	-214.128	-119.092
1.25125	-216.328	-129.661
1.26793	-218.454	-151.794
1.28462	-221.393	-176.694
1.3013	-224.35	-174.591
1.31798	-227.219	-181.861
1.33467	-230.418	-186.59
1.35135	-233.445	-180.415
1.36803	-236.438	-206.877
1.38472	-240.347	-226.038
1.4014	-243.98	-214.409
1.41808	-247.502	-219.399
1.43477	-251.301	-221.282
1.45145	-254.885	-213.314
1.46813	-258.418	-222.969
1.48482	-262.325	-212.078
1.5015	-265.495	-200.707
1.51818	-269.022	-203.074
1.53487	-272.27	-188.55
1.55155	-275.313	-185.182
1.56823	-278.449	-180.388
1.58492	-281.332	-180.719
1.6016	-284.479	-180.502
1.61828	-287.355	-175.403
1.63497	-290.332	-185.931
1.65165	-293.559	-187.403
1.66833	-296.585	-194.851
1.68502	-300.06	-201.69
1.7017	-303.315	-194.324
1.71838	-306.544	-212.485
1.73507	-310.405	-222.75
1.75175	-313.976	-216.372
1.76843	-317.624	-228.019
1.78512	-321.585	-239.833
1.8018	-325.627	-236.856
1.81848	-329.488	-240.872
1.83517	-333.664	-247.653
1.85185	-337.751	-240.456
1.86853	-341.687	-238.834
1.88522	-345.72	-239.173
1.9019	-349.667	-242.44
1.91858	-353.81	-241.433
1.93527	-357.723	-235.435
1.95195	-361.665	-233.643
1.96863	-365.519	-241.971
1.98532	-369.739	-237.698
2.002	-373.45	-227.18
2.01868	-377.319	-235.778
2.03537	-381.317	-243.619
2.05205	-385.448	-251.778
2.06873	-389.718	-249.397
2.08542	-393.77	-244.581
2.1021	-397.879	-244.055
2.11878	-401.913	-245.531
2.13547	-406.072	-245.541
2.15215	-410.106	-243.329
2.16883	-414.191	-242.399
2.18552	-418.194	-239.36
2.2022	-422.178	-240.43
2.21888	-426.216	-237.303
2.23557	-430.096	-211.337
2.25225	-433.268	-228.295
2.26893	-437.713	-257.748
2.28562	-441.868	-333.962
2.3023	-448.856	-245.739
2.31898	-450.067	-133.643
2.33567	-453.315	-200.557
2.35235	-456.759	-200.372
2.36903	-460.001	-218.908
2.38572	-464.064	-219.095
2.4024	-467.312	-236.711
2.41908	-471.962	-271.852
2.43577	-476.382	-242.983
2.45245	-480.069	-231.273
2.46913	-484.099	-241.606
2.48582	-488.131	-246.146
2.5025	-492.312	-242.401
2.51918	-496.219	-217.642
2.53587	-499.574	-249.14
2.55255	-504.532	-273.813
2.56923	-508.711	-284.689
2.58592	-514.031	-262.229
2.6026	-517.46	-221.966
2.61928	-521.437	-259.794
2.63597	-526.129	-267.892
2.65265	-530.376	-265.022
2.66933	-534.972	-272.307
2.68602	-539.462	-263.415
2.7027	-543.761	-253.484
2.71938	-547.92	-264.489
2.73607	-552.586	-264.953
2.75275	-556.761	-329.347
2.76943	-563.575	-307.054
2.78612	-567.006	-223.294
2.8028	-571.026	-256.487
2.81948	-575.564	-262.82
2.83617	-579.795	-271.134
2.85285	-584.611	-289.463