File: sem2/lab/dragforce/data/water/DSC_1723_S.txt
#t	x	v
3.26993	-1.34204	-33.7938
3.28662	-2.09217	-73.0054
3.3033	-3.77799	-96.3297
3.31998	-5.30637	-98.6671
3.33667	-7.07019	-105.812
3.35335	-8.83695	-107.015
3.37003	-10.6409	-118.324
3.38672	-12.785	-134.463
3.4034	-15.1275	-154.802
3.42008	-17.9503	-157.191
3.43677	-20.3725	-151.399
3.45345	-23.0019	-162.411
3.47013	-25.7916	-163.759
3.48682	-28.466	-166.142
3.5035	-31.3352	-170.468
3.52018	-34.154	-164.913
3.53687	-36.8378	-161.835
3.55355	-39.5539	-167.4
3.57023	-42.4234	-165.238
3.58692	-45.0673	-162.221
3.6036	-47.8361	-160.5
3.62028	-50.4227	-150.849
3.63697	-52.8695	-138.913
3.65365	-55.0577	-130.474
3.67033	-57.2229	-129.938
3.68702	-59.3933	-129.354
3.7037	-61.539	-131.62
3.72038	-63.7851	-130.971
3.73707	-65.9091	-126.254
3.75375	-67.9977	-135.007
3.77043	-70.4138	-145.57
3.78712	-72.8549	-139.498
3.8038	-75.0684	-146.171
3.82048	-77.7322	-149.537
3.83717	-80.058	-151.343
3.85385	-82.782	-167.071
3.87053	-85.6326	-164.803
3.88722	-88.2809	-155.644
3.9039	-90.8259	-158.177
3.92058	-93.5588	-164.17
3.93727	-96.3037	-183.396
3.95395	-99.6781	-187.826
3.97063	-102.571	-192.511
3.98732	-106.102	-182.937
4.004	-108.675	-159.795
4.02068	-111.433	-171.867
4.03737	-114.409	-176.756
4.05405	-117.331	-172.63
4.07073	-120.17	-173.255
4.08742	-123.112	-174.781
4.1041	-126.001	-177.943
4.12078	-129.049	-177.399
4.13747	-131.921	-176.222
4.15415	-134.929	-179.634
4.17083	-137.914	-180.707
4.18752	-140.959	-184.36
4.2042	-144.066	-180.562
4.22088	-146.984	-182.191
4.23757	-150.145	-184.444
4.25425	-153.138	-181.89
4.27093	-156.214	-185.359
4.28762	-159.323	-185.708
4.3043	-162.411	-185.039
4.32098	-165.497	-190.594
4.33767	-168.77	-189.21
4.35435	-171.81	-182.599
4.37103	-174.863	-180.865
4.38772	-177.845	-182.422
4.4044	-180.95	-186.961
4.42108	-184.083	-184.588
4.43777	-187.109	-183.369
4.45445	-190.202	-185.345
4.47113	-193.293	-187.952
4.48782	-196.473	-195.887
4.5045	-199.829	-192.037
4.52118	-202.881	-183.572
4.53787	-205.954	-185.064
4.55455	-209.056	-188.808
4.57123	-212.254	-186.652
4.58792	-215.284	-193.218
4.6046	-218.701	-197.09
4.62128	-221.86	-186.368
4.63797	-224.92	-184.896
4.65465	-228.029	-183.392
4.67133	-231.039	-180.228
4.68802	-234.043	-193.409
4.7047	-237.492	-208.511
4.72138	-241	-205.659
4.73807	-244.354	-188.584
4.75475	-247.293	-172.858
4.77143	-250.122	-192.479
4.78812	-253.715	-194.336
4.8048	-256.606	-183.579
4.82148	-259.84	-194.314
4.83817	-263.09	-200.391
4.85485	-266.527	-181.511
4.87153	-269.146	-179.11
4.88822	-272.503	-204.933
4.9049	-275.984	-203.901
4.92158	-279.307	-202.098
4.93827	-282.728	-199.458
4.95495	-285.962	-194.966
4.97163	-289.233	-201.47
4.98832	-292.684	-202.48
5.005	-295.989	-194.437
5.02168	-299.172	-194.355
5.03837	-302.474	-200.539
5.05505	-305.863	-200.934
5.07173	-309.179	-198.549
5.08842	-312.488	-200.185
5.1051	-315.858	-199.537
5.12178	-319.146	-198.732
5.13847	-322.489	-210.489
5.15515	-326.169	-214.908
5.17183	-329.66	-182.791
5.18852	-332.269	-143.297