File: sem2/lab/dragforce/data/water/DSC_1728_M.txt
0.483817	-198.408	-20.248
0.5005	-198.897	-51.2338
0.517183	-200.118	-65.747
0.533867	-201.091	-63.4085
0.55055	-202.233	-65.9643
0.567233	-203.292	-80.0121
0.583917	-204.903	-105.401
0.6006	-206.809	-122.103
0.617283	-208.977	-136.796
0.633967	-211.373	-152.669
0.65065	-214.071	-163.38
0.667333	-216.825	-164.6
0.684017	-219.564	-167.943
0.7007	-222.428	-191.342
0.717383	-225.948	-204.657
0.734067	-229.257	-191.875
0.75075	-232.35	-188.783
0.767433	-235.556	-194.517
0.784117	-238.841	-202.338
0.8008	-242.307	-210.116
0.817483	-245.852	-206.843
0.834167	-249.209	-193.641
0.85085	-252.313	-190.139
0.867533	-255.553	-198.626
0.884217	-258.94	-199.524
0.9009	-262.211	-190.557
0.917583	-265.298	-189.523
0.934267	-268.535	-196.467
0.95095	-271.854	-198.67
0.967633	-275.164	-195.321
0.984317	-278.371	-187.693
1.001	-281.426	-185.242
1.01768	-284.552	-189.797
1.03437	-287.759	-204.793
1.05105	-291.385	-226.929
1.06773	-295.331	-219.57
1.08442	-298.712	-207.891
1.1011	-302.268	-214.515
1.11778	-305.869	-216.549
1.13447	-309.493	-215.01
1.15115	-313.043	-211.917
1.16783	-316.564	-216.53
1.18452	-320.268	-223.527
1.2012	-324.022	-212.04
1.21788	-327.343	-209.067
1.23457	-330.998	-217.037
1.25125	-334.585	-215.33
1.26793	-338.183	-227.938
1.28462	-342.191	-233.627
1.3013	-345.979	-228.826
1.31798	-349.826	-229.138
1.33467	-353.624	-222.568
1.35135	-357.252	-228.022
1.36803	-361.232	-228.501
1.38472	-364.877	-220.62
1.4014	-368.594	-219.785
1.41808	-372.21	-224.486
1.43477	-376.084	-228.848
1.45145	-379.846	-222.848
1.46813	-383.52	-222.211
1.48482	-387.26	-227.623
1.5015	-391.115	-225.83
1.51818	-394.795	-227.29
1.53487	-398.699	-222.907
1.55155	-402.233	-205.038
1.56823	-405.54	-209.938
1.58492	-409.238	-242.874
1.6016	-413.644	-260.357
1.61828	-417.925	-235.406
1.63497	-421.499	-223.023
1.65165	-425.367	-235.191
1.66833	-429.346	-236.438
1.68502	-433.256	-237.559
1.7017	-437.273	-238.223
1.71838	-441.205	-213.493
1.73507	-444.396	-365.357
1.75175	-453.395	-303.886
1.76843	-454.536	-132.539
1.78512	-457.818	-193.391
1.8018	-460.989	-195.369
1.81848	-464.337	-212.152
1.83517	-468.068	-240.117
1.85185	-472.349	-249.475
1.86853	-476.392	-246.08
1.88522	-480.559	-235.469
1.9019	-484.249	-237.893
1.91858	-488.497	-248.719
1.93527	-492.548	-240.087
1.95195	-496.508	-238.791
1.96863	-500.515	-242.338
1.98532	-504.594	-249.875