File: sem2/lab/dragforce/data/water/DSC_1754_M.txt
2.23557	468.109	-29.4155
2.25225	467.12	-56.4208
2.26893	466.226	-93.1187
2.28562	464.013	-125.914
2.3023	462.025	-142.584
2.31898	459.255	-201.196
2.33567	455.311	-234.989
2.35235	451.415	-258.679
2.36903	446.68	-281.552
2.38572	442.02	-312.329
2.4024	436.259	-348.775
2.41908	430.383	-360.032
2.43577	424.246	-390.576
2.45245	417.351	-423.491
2.46913	410.115	-454.271
2.48582	402.193	-471.914
2.5025	394.369	-483.94
2.51918	386.046	-493.73
2.53587	377.895	-498.007
2.55255	369.429	-480.847
2.56923	361.851	-464.255
2.58592	353.938	-466.572
2.6026	346.283	-446.964
2.61928	339.024	-426.475
2.63597	332.053	-392.792
2.65265	325.918	-388.201
2.66933	319.1	-385.733
2.68602	313.048	-391.021
2.7027	306.053	-416.78
2.71938	299.141	-416.579
2.73607	292.153	-420.833
2.75275	285.099	-421.333
2.76943	278.094	-442.221
2.78612	270.344	-459.21
2.8028	262.772	-452.558
2.81948	255.243	-456.762
2.83617	247.531	-483.174
2.85285	239.122	-508.529
2.86953	230.563	-493.227
2.88622	222.664	-482.147
2.9029	214.476	-485.926
2.91958	206.451	-489.032
2.93627	198.158	-491.313
2.95295	190.057	-482.646
2.96963	182.054	-481.712
2.98632	173.984	-481.276
3.003	165.996	-475.035
3.01968	158.134	-473.984
3.03637	150.18	-480.004
3.05305	142.117	-479.367
3.06973	134.185	-482.275
3.08642	126.026	-483.712
3.1031	118.046	-479.169
3.11978	110.037	-480.145
3.13647	102.025	-482.145
3.15315	93.9497	-482.949
3.16983	85.9103	-479.769
3.18652	77.9414	-479.053
3.2032	69.9259	-479.277
3.21988	61.9495	-480.792
3.23657	53.8835	-483.624
3.25325	45.8126	-485.803
3.26993	37.6739	-476.411
3.28662	29.9163	-474.161
3.3033	21.8527	-481.74
3.31998	13.8423	-481.31
3.33667	5.79296	-484.749
3.35335	-2.33216	-486.254
3.37003	-10.4317	-473.357
3.38672	-18.1265	-472.828
3.4034	-26.2084	-481.332
3.42008	-34.1869	-483.98
3.43677	-42.3572	-484.988
3.45345	-50.3694	-488.912
3.47013	-58.6705	-498.466
3.48682	-67.0015	-501.74
3.5035	-75.4119	-504.206
3.52018	-83.8252	-504.969
3.53687	-92.2611	-512.685
3.55355	-100.932	-521.681
3.57023	-109.668	-531.852
3.58692	-118.678	-525.784
3.6036	-127.212	-506.223
3.62028	-135.569	-500.034
3.63697	-143.896	-518.513
3.65365	-152.87	-544.692
3.67033	-162.071	-550.167
3.68702	-171.227	-540.864
3.7037	-180.117	-533.543
3.72038	-189.03	-534.443
3.73707	-197.95	-535.414
3.75375	-206.895	-539.238
3.77043	-215.943	-536.988
3.78712	-224.812	-536.94
3.8038	-233.858	-530.783
3.82048	-242.523	-520.899
3.83717	-251.239	-522.141
3.85385	-259.945	-522.103
3.87053	-268.66	-535.828
3.88722	-277.824	-534.92
3.9039	-286.508	-512.932
3.92058	-294.938	-505.1
3.93727	-303.362	-520.814
3.95395	-312.316	-530.882
3.97063	-321.076	-528.145
3.98732	-329.939	-526.738
4.004	-338.651	-521.671
4.02068	-347.345	-524.684
4.03737	-356.158	-526.103
4.05405	-364.899	-521.824
4.07073	-373.57	-518.404