File: sem2/lab/dragforce/data/water/DSC_1753_S.txt
0.4004	497.303	-29.97
0.417083	496.303	-29.97
0.433767	496.303	0.0
0.45045	496.303	-29.97
0.467133	495.303	-59.9401
0.483817	494.303	-89.9101
0.5005	492.303	-119.88
0.517183	490.303	-124.226
0.533867	488.158	-149.85
0.55055	485.303	-205.444
0.567233	481.303	-209.79
0.583917	478.303	-239.76
0.6006	473.303	-257.91
0.617283	469.697	-275.693
0.633967	464.104	-323.637
0.65065	458.899	-319.335
0.667333	453.449	-336.679
0.684017	447.665	-352.265
0.7007	441.695	-370.009
0.717383	435.319	-400.79
0.734067	428.322	-410.527
0.75075	421.621	-380.89
0.767433	415.613	-354.192
0.784117	409.803	-348.019
0.8008	404.001	-343.268
0.817483	398.349	-335.837
0.834167	392.795	-321.322
0.85085	387.628	-300.626
0.867533	382.764	-286.549
0.884217	378.066	-287.217
0.9009	373.181	-313.978
0.917583	367.59	-323.396
0.934267	362.39	-331.345
0.95095	356.534	-349.052
0.967633	350.743	-354.978
0.984317	344.69	-358.044
1.001	338.796	-336.005
1.01768	333.478	-367.315
1.03437	326.54	-384.363
1.05105	320.653	-355.484
1.06773	314.679	-360.458
1.08442	308.626	-375.024
1.1011	302.166	-386.3
1.11778	295.737	-361.931
1.13447	290.089	-341.378
1.15115	284.346	-356.483
1.16783	278.195	-352.777
1.18452	272.575	-343.474
1.2012	266.734	-344.766
1.21788	261.071	-353.003
1.23457	254.956	-353.363
1.25125	249.281	-340.286
1.26793	243.601	-340.349
1.28462	237.924	-346.043
1.3013	232.055	-350.058
1.31798	226.244	-358.981
1.33467	220.077	-363.04
1.35135	214.131	-362.667
1.36803	207.976	-379.262
1.38472	201.476	-377.079
1.4014	195.394	-374.723
1.41808	188.973	-395.486
1.43477	182.198	-401.7
1.45145	175.569	-399.6
1.46813	168.865	-403.704
1.48482	162.099	-401.91
1.5015	155.454	-390.293
1.51818	149.076	-409.398
1.53487	141.794	-418.519
1.55155	135.112	-405.506
1.56823	128.264	-419.329
1.58492	121.12	-430.144
1.6016	113.911	-414.179
1.61828	107.3	-413.18
1.63497	100.125	-410.435
1.65165	93.6055	-400.077
1.66833	86.7757	-425.135
1.68502	79.4202	-422.977
1.7017	72.6623	-397.838
1.71838	66.1457	-406.02
1.73507	59.1148	-410.501
1.75175	52.4486	-387.967
1.76843	46.1696	-381.139
1.78512	39.7313	-418.035
1.8018	32.2212	-444.431
1.81848	24.9021	-425.61
1.83517	18.02	-434.424
1.85185	10.4069	-434.612
1.86853	3.51846	-434.71
1.88522	-4.09798	-422.147
1.9019	-10.5672	-408.407
1.91858	-17.7252	-427.561
1.93527	-24.8335	-434.515
1.95195	-32.2235	-480.545
1.96863	-40.8677	-447.448
1.98532	-47.1533	-411.731
2.002	-54.6058	-452.245
2.01868	-62.2432	-442.699
2.03537	-69.3772	-422.265
2.05205	-76.3328	-416.359
2.06873	-83.2697	-368.933
2.08542	-88.6429	-345.362
2.1021	-94.7933	-443.174
2.11878	-103.43	-453.501
2.13547	-109.925	-388.75
2.15215	-116.401	-381.608
2.16883	-122.658	-350.324
2.18552	-128.091	-342.524
2.2022	-134.087	-397.342
2.21888	-141.349	-406.245
2.23557	-147.642	-356.027
2.25225	-153.228	-299.443