File: sem2/lab/dragforce/data/water/DSC_1731_M.txt
1.83517	-197.867	-38.4876
1.85185	-198.541	-46.8709
1.86853	-199.43	-55.911
1.88522	-200.407	-67.6862
1.9019	-201.689	-78.9932
1.91858	-203.042	-97.7425
1.93527	-204.95	-114.893
1.95195	-206.876	-125.274
1.96863	-209.13	-135.422
1.98532	-211.395	-149.205
2.002	-214.109	-149.636
2.01868	-216.387	-154.354
2.03537	-219.259	-174.374
2.05205	-222.206	-175.784
2.06873	-225.124	-179.508
2.08542	-228.195	-175.866
2.1021	-230.992	-173.986
2.11878	-234.001	-179.871
2.13547	-236.994	-167.577
2.15215	-239.592	-158.816
2.16883	-242.293	-163.71
2.18552	-245.055	-149.476
2.2022	-247.281	-131.31
2.21888	-249.436	-133.292
2.23557	-251.728	-137.881
2.25225	-254.037	-135.873
2.26893	-256.262	-142.793
2.28562	-258.801	-150.605
2.3023	-261.287	-158.003
2.31898	-264.073	-156.33
2.33567	-266.503	-158.256
2.35235	-269.354	-168.688
2.36903	-272.132	-179.782
2.38572	-275.352	-186.563
2.4024	-278.357	-181.167
2.41908	-281.397	-193.004
2.43577	-284.797	-202.387
2.45245	-288.15	-204.355
2.46913	-291.615	-213.891
2.48582	-295.287	-239.209
2.5025	-299.597	-206.432
2.51918	-302.175	-183.925
2.53587	-305.734	-208.824
2.55255	-309.143	-202.408
2.56923	-312.488	-209.635
2.58592	-316.138	-220.654
2.6026	-319.85	-214.279
2.61928	-323.287	-213.957
2.63597	-326.989	-214.455
2.65265	-330.443	-215.381
2.66933	-334.176	-212.009
2.68602	-337.517	-209.947
2.7027	-341.181	-211.606
2.71938	-344.578	-211.717
2.73607	-348.245	-219.573
2.75275	-351.904	-212.93
2.76943	-355.35	-209.846
2.78612	-358.906	-208.88
2.8028	-362.32	-207.097
2.81948	-365.816	-207.528
2.83617	-369.244	-195.154
2.85285	-372.328	-185.639
2.86953	-375.438	-181.776
2.88622	-378.393	-176.711
2.9029	-381.335	-178.833
2.91958	-384.36	-178.183
2.93627	-387.28	-177.27
2.95295	-390.275	-179.296
2.96963	-393.262	-177.63
2.98632	-396.202	-180.242
3.003	-399.276	-183.373
3.01968	-402.321	-183.253
3.03637	-405.391	-179.418
3.05305	-408.307	-179.44
3.06973	-411.378	-185.728
3.08642	-414.504	-195.822
3.1031	-417.912	-201
3.11978	-421.211	-192.963
3.13647	-424.351	-205.509
3.15315	-428.068	-210.374
3.16983	-431.37	-205.187
3.18652	-434.915	-205.786
3.2032	-438.237	-197.785
3.21988	-441.514	-208.331
3.23657	-445.188	-210.798
3.25325	-448.548	-211.388
3.26993	-452.241	-219.987
3.28662	-455.888	-209.813
3.3033	-459.242	-195.717
3.31998	-462.418	-203.905
3.33667	-466.046	-231.722
3.35335	-470.15	-238.484
3.37003	-474.003	-222.164
3.38672	-477.563	-213.427
3.4034	-481.125	-214.515
3.42008	-484.721	-209.397
3.43677	-488.111	-203.48
3.45345	-491.51	-201.514
3.47013	-494.835	-200.682
3.48682	-498.206	-195.841
3.5035	-501.37	-185.951
3.52018	-504.411	-181.019
3.53687	-507.41	-177.035
3.55355	-510.318	-171.205
3.57023	-513.122	-171.167
3.58692	-516.029	-164.527
3.6036	-518.612	-158.369
3.62028	-521.313	-166.515
3.63697	-524.168	-164.324
3.65365	-526.796	-134.298
3.67033	-528.649	-186.866
3.68702	-533.031	-225.38
3.7037	-536.169	-188.566
3.72038	-539.323	-199.522
3.73707	-542.827	-210.311
3.75375	-546.34	-208.126
3.77043	-549.771	-208.717
3.78712	-553.305	-215.393
3.8038	-556.958	-210.407
3.82048	-560.325	-207.689
3.83717	-563.888	-207.798
3.85385	-567.259	-197.007
3.87053	-570.462	-192.595
3.88722	-573.685	-195.438
3.9039	-576.983	-193.532
3.92058	-580.142	-194.357
3.93727	-583.468	-184.214
3.95395	-586.289	-140.432
3.97063	-588.153	-16.4551